x 2.750000
w 47.175619
wstd 0.014069
# theta(rad)	count	mean(uA)	median(uA)	std dev(uA)
0.000500	16	0.026289	0.028104	0.010882
0.001500	17	0.022161	0.021790	0.020042
0.002500	15	0.020106	0.021790	0.020098
0.003500	15	0.021201	0.024316	0.014009
0.004500	15	0.020527	0.021790	0.012148
0.005500	15	0.023895	0.019264	0.021935
0.006500	15	0.024147	0.024316	0.012156
0.007500	19	0.024050	0.021790	0.011658
0.008500	17	0.027584	0.031893	0.022032
0.009500	18	0.017159	0.012950	0.015908
0.010500	15	0.022211	0.023053	0.011321
0.011500	15	0.022632	0.025578	0.010653
0.012500	15	0.023811	0.025578	0.015832
0.013500	15	0.020611	0.019264	0.012143
0.014500	15	0.030209	0.019264	0.027471
0.015500	17	0.028476	0.021790	0.028585
0.016500	16	0.019974	0.017370	0.019220
0.017500	16	0.016896	0.016107	0.013244
0.018500	17	0.023796	0.019264	0.017120
0.019500	15	0.023895	0.018001	0.021256
0.020500	15	0.016234	0.018001	0.021004
0.021500	15	0.018001	0.014212	0.017328
0.022500	15	0.013876	0.012950	0.021448
0.023500	15	0.019012	0.023053	0.014222
0.024500	19	0.022588	0.026841	0.023350
0.025500	17	0.020304	0.021790	0.018012
0.026500	18	0.014072	0.016738	0.015472
0.027500	15	0.018254	0.019264	0.015427
0.028500	15	0.010088	0.018001	0.019187
0.029500	15	0.012445	0.010424	0.018106
0.030500	15	0.016149	0.021790	0.017619
0.031500	15	0.015476	0.020527	0.029236
0.032500	17	0.019339	0.021790	0.021525
0.033500	16	0.007267	0.007267	0.014467
0.034500	16	0.006636	0.007267	0.018058
0.035500	17	0.012505	0.009161	0.023976
0.036500	15	0.012361	0.012950	0.016386
0.037500	15	0.010256	0.009161	0.010514
0.038500	15	0.016402	0.021790	0.017903
0.039500	15	0.015560	0.019264	0.022667
0.040500	15	0.007394	0.007898	0.017612
0.041500	19	0.010358	0.006635	0.026124
0.042500	17	0.007973	0.010424	0.017055
0.043500	18	0.009442	0.007898	0.016109
0.044500	15	0.004531	0.005372	0.017743
0.045500	15	0.006468	0.005372	0.018024
0.046500	15	0.001585	0.002846	0.022851
0.047500	15	0.002680	0.007898	0.025580
0.048500	15	-0.000098	0.007898	0.030722
0.049500	17	0.005299	0.010424	0.019647
0.050500	16	0.005373	0.004109	0.018031
0.051500	16	0.007662	0.008529	0.013928
0.052500	17	-0.001387	0.002846	0.015109
0.053500	15	-0.000857	0.004109	0.013905
0.054500	15	-0.001193	-0.000942	0.023831
0.055500	15	0.011182	0.014212	0.018409
0.056500	15	0.004784	0.002846	0.022185
0.057500	19	-0.001805	0.002846	0.018572
0.058500	17	0.001659	-0.003467	0.019647
0.059500	18	-0.007185	-0.004099	0.014632
0.060500	15	-0.003635	-0.002205	0.010890
0.061500	15	-0.001194	-0.005993	0.014288
0.062500	15	0.001585	-0.005993	0.022660
0.063500	15	-0.008096	-0.008518	0.017064
0.064500	15	0.003521	0.006635	0.014797
0.065500	17	-0.003689	0.000321	0.022137
0.066500	16	-0.002835	-0.002836	0.016651
0.067500	16	0.004584	0.002846	0.019455
0.068500	17	-0.007775	-0.007255	0.014378
0.069500	15	-0.003383	-0.003467	0.009611
0.070500	15	-0.004140	-0.002205	0.017441
0.071500	15	-0.008686	-0.008518	0.015333
0.072500	15	-0.001193	-0.003467	0.022651
0.073500	15	-0.007086	-0.007255	0.015166
0.074500	19	-0.010179	-0.009781	0.018899
0.075500	17	-0.000198	0.002846	0.015996
0.076500	18	-0.010271	-0.012937	0.016848
0.077500	15	-0.002203	-0.005993	0.027462
0.078500	15	-0.004224	-0.004730	0.020687
0.079500	15	-0.001783	-0.007255	0.016971
0.080500	15	-0.001277	-0.008518	0.029609
0.081500	15	-0.007591	-0.005993	0.017050
0.082500	17	-0.005695	-0.005993	0.015810
0.083500	16	-0.018066	-0.019882	0.018526
0.084500	16	-0.008675	-0.007255	0.012579
0.085500	17	-0.020550	-0.018619	0.022550
0.086500	15	0.000070	-0.005993	0.019968
0.087500	15	-0.004476	-0.002205	0.025040
0.088500	15	-0.014999	-0.016094	0.016255
0.089500	15	-0.013400	-0.017356	0.019150
0.090500	15	-0.011716	-0.008518	0.014232
0.091500	19	-0.011973	-0.016094	0.014338
0.092500	17	-0.011340	-0.014831	0.014607
0.093500	18	-0.003256	-0.004730	0.015398
0.094500	15	-0.027205	-0.024932	0.018966
0.095500	15	-0.014662	-0.019882	0.016352
0.096500	15	-0.016767	-0.018619	0.014233
0.097500	15	-0.007002	-0.003467	0.013986
0.098500	17	-0.015277	-0.012306	0.017709
0.099500	15	-0.018029	-0.014831	0.018268
0.100500	16	-0.016962	-0.010412	0.017977
0.101500	16	-0.009859	-0.009149	0.016814
0.102500	17	-0.017058	-0.027458	0.030692
0.103500	15	-0.008180	-0.007255	0.019548
0.104500	15	-0.011127	-0.011043	0.020888
0.105500	15	-0.014746	-0.014831	0.020243
0.106500	15	-0.017188	-0.014831	0.022554
0.107500	19	-0.007853	-0.008518	0.017373
0.108500	15	-0.019966	-0.017356	0.022291
0.109500	17	-0.019213	-0.024932	0.022630
0.110500	18	-0.012376	-0.012937	0.017341
0.111500	15	-0.013652	-0.018619	0.022491
0.112500	15	-0.017525	-0.018619	0.020380
0.113500	15	-0.018787	-0.019882	0.026338
0.114500	15	-0.015841	-0.017356	0.016185
0.115500	17	-0.021367	-0.023670	0.015908
0.116500	16	-0.017119	-0.022407	0.016459
0.117500	15	-0.020387	-0.017356	0.017182
0.118500	16	-0.016883	-0.016094	0.017432
0.119500	17	-0.020401	-0.022407	0.021306
