x 3.000000
w 47.214105
wstd 0.009842
# theta(rad)	count	mean(uA)	median(uA)	std dev(uA)
0.000500	16	-0.003624	-0.009781	0.023822
0.001500	19	-0.008251	-0.007255	0.018066
0.002500	20	-0.014389	-0.016094	0.014722
0.003500	17	-0.012751	-0.014831	0.019378
0.004500	16	-0.016567	-0.011043	0.023474
0.005500	16	-0.008991	-0.009781	0.021793
0.006500	16	-0.010096	-0.011043	0.017944
0.007500	16	-0.005281	-0.005993	0.018370
0.008500	16	-0.012069	-0.013569	0.011626
0.009500	16	-0.017119	-0.016725	0.016215
0.010500	19	-0.015496	-0.018619	0.013434
0.011500	21	-0.011584	-0.008518	0.014531
0.012500	16	-0.013173	-0.015462	0.016279
0.013500	16	-0.010964	-0.013569	0.015056
0.014500	16	-0.014831	-0.014831	0.017000
0.015500	16	-0.014041	-0.009781	0.023478
0.016500	16	-0.013173	-0.014831	0.019783
0.017500	16	-0.014121	-0.007887	0.016745
0.018500	19	-0.009381	-0.011043	0.014397
0.019500	20	-0.011106	-0.008518	0.012567
0.020500	17	-0.008443	-0.013569	0.014697
0.021500	16	-0.013094	-0.015462	0.021006
0.022500	16	-0.021776	-0.023038	0.017168
0.023500	16	-0.006387	-0.007255	0.013159
0.024500	16	-0.007492	-0.003467	0.014273
0.025500	16	-0.014515	-0.014831	0.013793
0.026500	16	-0.015068	-0.015462	0.014686
0.027500	19	-0.004464	-0.005993	0.011664
0.028500	19	-0.016426	-0.016094	0.019812
0.029500	18	-0.016234	-0.017356	0.019319
0.030500	16	-0.013331	-0.011043	0.019613
0.031500	16	-0.010253	-0.007887	0.018428
0.032500	16	-0.007807	-0.004099	0.015966
0.033500	16	-0.009622	-0.014831	0.018873
0.034500	16	-0.014357	-0.011675	0.019693
0.035500	19	-0.005460	0.000321	0.016188
0.036500	20	-0.014831	-0.017356	0.011696
0.037500	17	-0.007552	-0.003467	0.013836
0.038500	16	-0.010490	-0.008518	0.019638
0.039500	16	-0.014120	-0.012306	0.022725
0.040500	16	-0.011043	-0.013569	0.017365
0.041500	16	-0.014831	-0.020513	0.017996
0.042500	16	-0.004729	-0.005361	0.018013
0.043500	16	-0.010727	-0.011675	0.010340
0.044500	19	-0.003533	-0.000942	0.015288
0.045500	19	-0.008318	-0.005993	0.019869
0.046500	18	-0.014550	-0.016094	0.020536
0.047500	16	-0.005913	-0.009149	0.022114
0.048500	16	-0.004887	-0.002205	0.023163
0.049500	16	-0.013173	-0.013569	0.018556
0.050500	16	-0.010727	-0.012937	0.019498
0.051500	16	-0.010411	-0.007887	0.017683
0.052500	19	-0.007454	0.000321	0.019155
0.053500	20	-0.009022	-0.016094	0.022220
0.054500	17	-0.005101	-0.003467	0.013885
0.055500	16	-0.003151	-0.006624	0.017306
0.056500	16	-0.005045	-0.003467	0.018088
0.057500	16	-0.009307	-0.011043	0.011511
0.058500	16	-0.009780	-0.011675	0.014216
0.059500	16	-0.006386	-0.009781	0.016922
0.060500	16	-0.007175	-0.014200	0.021409
0.061500	19	0.000986	0.001584	0.017150
0.062500	19	-0.002004	-0.000942	0.019568
0.063500	18	-0.006623	-0.005361	0.021001
0.064500	16	-0.001730	-0.006624	0.018510
0.065500	16	-0.002756	-0.009781	0.021899
0.066500	16	-0.007018	-0.009149	0.016067
0.067500	16	-0.002203	0.000952	0.021069
0.068500	19	0.005307	0.005372	0.017004
0.069500	16	0.004663	0.003478	0.016965
0.070500	20	-0.004602	-0.006624	0.022645
0.071500	17	0.000323	-0.005993	0.029535
0.072500	16	0.000953	0.002847	0.014935
0.073500	16	0.003164	0.007267	0.021933
0.074500	16	-0.002046	-0.005361	0.018873
0.075500	16	0.000006	-0.002836	0.014878
0.076500	16	-0.003308	-0.003467	0.018167
0.077500	19	0.002117	0.002846	0.021804
0.078500	16	-0.002755	-0.005993	0.024236
0.079500	19	0.001319	0.001584	0.015881
0.080500	18	0.000954	-0.001573	0.025642
0.081500	16	0.002532	-0.002205	0.014918
0.082500	16	0.007188	0.008529	0.018212
0.083500	16	-0.005044	-0.004099	0.027454
0.084500	15	0.007900	0.002846	0.033702
0.085500	18	0.010003	0.009161	0.015795
0.086500	19	0.008763	0.009161	0.022995
0.087500	15	0.006215	0.007898	0.018040
0.088500	16	0.001664	-0.004730	0.017755
0.089500	15	0.004026	0.002846	0.017772
0.090500	15	0.009920	0.004109	0.029326
0.091500	15	0.009751	0.004109	0.023625
0.092500	15	0.017076	0.012950	0.025238
0.093500	15	0.016907	0.016738	0.015651
0.094500	18	0.004251	0.010424	0.015861
0.095500	15	0.010425	0.004109	0.025408
0.096500	18	0.002147	-0.008518	0.024939
0.097500	16	0.004742	0.007267	0.023358
0.098500	15	0.014802	0.018001	0.012483
0.099500	15	0.008909	0.002846	0.017884
0.100500	15	0.010341	0.009161	0.029245
0.101500	15	0.015644	0.016738	0.019168
0.102500	18	0.011336	0.007898	0.018820
0.103500	19	0.008099	0.007898	0.025144
0.104500	15	0.015055	0.015475	0.018135
0.105500	16	0.009319	0.004741	0.014556
0.106500	15	0.007983	0.001584	0.016889
0.107500	15	0.012192	0.015475	0.019584
0.108500	15	0.007731	0.014212	0.020851
0.109500	15	0.014466	0.007898	0.028054
0.110500	15	0.022884	0.015475	0.023814
0.111500	18	0.023333	0.016107	0.021414
0.112500	15	0.014549	0.007898	0.014989
0.113500	18	0.010846	0.016738	0.021373
0.114500	16	0.013187	0.012950	0.021240
0.115500	15	0.008741	0.010424	0.016482
0.116500	15	0.018338	0.011687	0.024607
0.117500	15	0.021537	0.021790	0.022006
0.118500	15	0.018507	0.011687	0.025495
0.119500	18	0.016879	0.014212	0.020297
