x 8.250000
w 46.989635
wstd 0.008980
# theta(rad)	count	mean(uA)	median(uA)	std dev(uA)
0.000500	15	-0.015756	-0.012306	0.027178
0.001500	15	0.001922	-0.003467	0.028310
0.002500	15	-0.006917	-0.012306	0.033287
0.003500	15	-0.011210	-0.011043	0.035214
0.004500	15	-0.005150	-0.002205	0.024440
0.005500	18	-0.017987	-0.012937	0.031839
0.006500	20	-0.012053	-0.012306	0.021128
0.007500	18	-0.002624	-0.003467	0.030036
0.008500	15	-0.005738	-0.012306	0.035532
0.009500	15	-0.001361	-0.005993	0.029732
0.010500	15	-0.009443	-0.007255	0.019102
0.011500	15	-0.014241	-0.018619	0.028849
0.012500	15	-0.017356	-0.016094	0.025988
0.013500	15	0.006047	-0.003467	0.027365
0.014500	19	-0.000741	-0.007255	0.024552
0.015500	15	-0.014409	-0.013569	0.031940
0.016500	15	-0.005402	-0.003467	0.024047
0.017500	15	-0.010369	-0.007255	0.025081
0.018500	15	-0.018450	-0.012306	0.036157
0.019500	15	-0.002119	-0.003467	0.025257
0.020500	15	0.002680	-0.002205	0.026035
0.021500	18	-0.012725	-0.011675	0.030657
0.022500	23	-0.004564	-0.007255	0.024999
0.023500	15	-0.021313	-0.016094	0.021796
0.024500	15	-0.009274	-0.013569	0.030518
0.025500	15	-0.001613	-0.003467	0.029971
0.026500	15	-0.006412	-0.002205	0.024072
0.027500	15	-0.009358	-0.016094	0.024139
0.028500	15	-0.008938	-0.008518	0.025055
0.029500	16	-0.009464	-0.007255	0.023362
0.030500	18	-0.015182	-0.017356	0.015423
0.031500	15	-0.004729	-0.005993	0.021671
0.032500	15	-0.002791	-0.004730	0.034735
0.033500	15	-0.007927	-0.022407	0.028535
0.034500	15	-0.010621	-0.009781	0.023305
0.035500	15	-0.008517	-0.002205	0.020511
0.036500	18	-0.023459	-0.026195	0.019081
0.037500	20	-0.013947	-0.013569	0.020148
0.038500	18	-0.009569	-0.012937	0.027431
0.039500	15	-0.010873	-0.011043	0.028027
0.040500	15	-0.011379	-0.008518	0.022023
0.041500	15	-0.012894	-0.014831	0.026086
0.042500	15	-0.018029	-0.021144	0.020763
0.043500	15	-0.019460	-0.018619	0.022435
0.044500	15	-0.015251	-0.016094	0.031676
0.045500	16	-0.011278	-0.014831	0.028378
0.046500	18	-0.015743	-0.007887	0.024882
0.047500	15	-0.020555	-0.019882	0.027533
0.048500	15	-0.024680	-0.019882	0.022975
0.049500	15	-0.026279	-0.022407	0.023647
0.050500	15	-0.024595	-0.016094	0.034930
0.051500	15	-0.022070	-0.027458	0.028862
0.052500	18	-0.031456	-0.026826	0.023314
0.053500	20	-0.030425	-0.024932	0.024442
0.054500	18	-0.034683	-0.033140	0.023546
0.055500	15	-0.032761	-0.024932	0.021444
0.056500	15	-0.032003	-0.029983	0.028041
0.057500	15	-0.030404	-0.032508	0.025777
0.058500	15	-0.030235	-0.032508	0.025597
0.059500	15	-0.039158	-0.037559	0.028806
0.060500	16	-0.037085	-0.035665	0.020088
0.061500	18	-0.029562	-0.024932	0.016961
0.062500	15	-0.033097	-0.023670	0.030374
0.063500	15	-0.027121	-0.026195	0.027079
0.064500	15	-0.025101	-0.018619	0.022816
0.065500	15	-0.032255	-0.038821	0.021968
0.066500	15	-0.033686	-0.026195	0.030218
0.067500	18	-0.033069	-0.035665	0.024844
0.068500	20	-0.027016	-0.025564	0.020833
0.069500	15	-0.026279	-0.024932	0.024891
0.070500	18	-0.020793	-0.019250	0.021498
0.071500	15	-0.028215	-0.036296	0.022435
0.072500	15	-0.030235	-0.024932	0.026439
0.073500	15	-0.021902	-0.022407	0.022830
0.074500	15	-0.018029	-0.014831	0.020727
0.075500	15	-0.023838	-0.022407	0.027288
0.076500	16	-0.017750	-0.016094	0.022307
0.077500	18	-0.014129	-0.014831	0.017689
0.078500	15	-0.025690	-0.024932	0.017225
0.079500	15	-0.012557	-0.009781	0.027515
0.080500	15	-0.013904	-0.008518	0.024698
0.081500	15	-0.009948	-0.009781	0.018706
0.082500	15	-0.014662	-0.017356	0.020900
0.083500	18	-0.015181	-0.016094	0.021987
0.084500	20	-0.016157	-0.016725	0.017476
0.085500	18	-0.016444	-0.017988	0.015503
0.086500	15	-0.018114	-0.018619	0.017483
0.087500	15	-0.011548	-0.004730	0.021879
0.088500	15	-0.005739	-0.004730	0.018708
0.089500	15	-0.017440	-0.021144	0.020200
0.090500	15	-0.015083	-0.019882	0.029344
0.091500	16	-0.013568	-0.007887	0.019056
0.092500	18	-0.007044	-0.006624	0.017407
0.093500	15	-0.011043	-0.009781	0.015926
0.094500	15	-0.008853	-0.004730	0.025083
0.095500	15	-0.006412	-0.012306	0.026786
0.096500	15	-0.014242	-0.011043	0.016372
0.097500	15	-0.013736	-0.017356	0.018557
0.098500	18	-0.012656	-0.017356	0.019121
0.099500	15	-0.005402	-0.004730	0.024822
0.100500	20	-0.000372	-0.002205	0.019776
0.101500	18	-0.008938	-0.009781	0.016214
0.102500	15	-0.011379	-0.016094	0.022053
0.103500	15	-0.017187	-0.021144	0.026474
0.104500	15	-0.002119	0.004109	0.018331
0.105500	15	-0.011800	-0.016094	0.016655
0.106500	15	-0.001193	-0.002205	0.018799
0.107500	16	-0.005281	-0.004099	0.022943
0.108500	18	-0.015672	-0.019250	0.021146
0.109500	15	-0.013063	-0.011043	0.021124
0.110500	15	-0.005318	-0.008518	0.020224
0.111500	15	-0.005739	0.000321	0.023781
0.112500	15	-0.003634	-0.007255	0.021973
0.113500	15	0.004111	0.002846	0.026827
0.114500	18	-0.005430	-0.012306	0.025480
0.115500	20	-0.000246	0.001584	0.025244
0.116500	15	-0.004560	-0.008518	0.019567
0.117500	18	-0.008096	-0.007887	0.023766
0.118500	15	0.004531	0.000321	0.019637
0.119500	15	-0.000772	-0.005993	0.024070
