x 14.000000
w 46.946500
wstd 0.005844
# theta(rad)	count	mean(uA)	median(uA)	std dev(uA)
0.000500	15	-0.064158	-0.065337	0.050558
0.001500	15	-0.084781	-0.077963	0.053578
0.002500	15	-0.065758	-0.065337	0.051599
0.003500	15	-0.064579	-0.056498	0.048342
0.004500	19	-0.078894	-0.085539	0.035538
0.005500	15	-0.064243	-0.072913	0.039034
0.006500	15	-0.058098	-0.061549	0.040176
0.007500	15	-0.081499	-0.079226	0.035388
0.008500	15	-0.071566	-0.095640	0.049118
0.009500	15	-0.068451	-0.067862	0.048512
0.010500	15	-0.069967	-0.067862	0.032815
0.011500	19	-0.065736	-0.066600	0.039886
0.012500	22	-0.079456	-0.083014	0.032962
0.013500	15	-0.082677	-0.066600	0.038894
0.014500	15	-0.076701	-0.085539	0.046436
0.015500	15	-0.081330	-0.091853	0.041061
0.016500	15	-0.073586	-0.065337	0.042796
0.017500	15	-0.086802	-0.105742	0.042952
0.018500	15	-0.085792	-0.096903	0.033601
0.019500	19	-0.101422	-0.099428	0.038030
0.020500	15	-0.106163	-0.112055	0.038077
0.021500	15	-0.113991	-0.120893	0.044335
0.022500	15	-0.117105	-0.100691	0.034683
0.023500	15	-0.125523	-0.113318	0.034079
0.024500	15	-0.141601	-0.153722	0.034695
0.025500	15	-0.174766	-0.190339	0.038424
0.026500	15	-0.188824	-0.209279	0.047316
0.027500	26	-0.245652	-0.252209	0.038166
0.028500	15	-0.304987	-0.295138	0.045731
0.029500	15	-0.365426	-0.360796	0.054226
0.030500	15	-0.450191	-0.442868	0.055784
0.031500	15	-0.571742	-0.564082	0.060240
0.032500	15	-0.702552	-0.682771	0.092472
0.033500	15	-0.914508	-0.896158	0.100225
0.034500	15	-1.178233	-1.147424	0.131838
0.035500	19	-1.591809	-1.584300	0.217663
0.036500	15	-2.160992	-2.196683	0.276796
0.037500	15	-2.815716	-2.868410	0.345314
0.038500	15	-3.636940	-3.657564	0.447216
0.039500	15	-4.592931	-4.627276	0.545983
0.040500	15	-5.691685	-5.781332	0.685735
0.041500	15	-6.879246	-6.987160	0.850131
0.042500	19	-8.331412	-8.272532	1.194339
0.043500	22	-9.746902	-9.435430	1.453207
0.044500	15	-10.526356	-10.099580	1.481985
0.045500	15	-10.593697	-10.349584	1.342059
0.046500	15	-10.262968	-9.996044	1.107765
0.047500	15	-9.702858	-9.448056	0.863912
0.048500	15	-9.074398	-8.796532	0.672158
0.049500	15	-8.526745	-8.325564	0.519780
0.050500	19	-8.022995	-7.922780	0.441509
0.051500	15	-7.795759	-7.675304	0.435504
0.052500	15	-7.681026	-7.590704	0.449091
0.053500	15	-7.619409	-7.527572	0.486373
0.054500	15	-7.506107	-7.388680	0.516737
0.055500	15	-7.302989	-7.243476	0.508697
0.056500	15	-6.995409	-6.988424	0.462681
0.057500	19	-6.501440	-6.519980	0.400021
0.058500	22	-6.067265	-6.087524	0.329504
0.059500	15	-5.715171	-5.691684	0.226452
0.060500	15	-5.656837	-5.660120	0.275545
0.061500	15	-5.746064	-5.823000	0.346125
0.062500	15	-5.918710	-5.985884	0.439799
0.063500	15	-6.098341	-6.161388	0.519979
0.064500	15	-6.239590	-6.287656	0.589434
0.065500	19	-6.238809	-6.124772	0.586981
0.066500	15	-6.237991	-6.264928	0.537697
0.067500	15	-6.154319	-6.199268	0.464368
0.068500	15	-6.116524	-6.187904	0.387863
0.069500	15	-6.173343	-6.242200	0.354025
0.070500	15	-6.377891	-6.458112	0.379089
0.071500	15	-6.753234	-6.896248	0.455367
0.072500	15	-7.278410	-7.413936	0.546715
0.073500	19	-8.018343	-8.088188	0.752601
0.074500	22	-8.616547	-8.643752	0.884548
0.075500	15	-9.157480	-9.386188	0.909653
0.076500	15	-9.507485	-9.802860	0.930562
0.077500	15	-9.875757	-10.189228	0.963563
0.078500	15	-10.304971	-10.626104	1.031652
0.079500	15	-10.740415	-11.166516	1.138065
0.080500	15	-11.076701	-11.432936	1.243142
0.081500	19	-11.041049	-11.461976	1.388111
0.082500	15	-10.847994	-11.123588	1.428276
0.083500	15	-10.059598	-10.206908	1.395545
0.084500	15	-8.838367	-8.826836	1.241691
0.085500	15	-7.405348	-7.312924	1.036037
0.086500	15	-5.955831	-5.849516	0.821856
0.087500	15	-4.621383	-4.557828	0.633730
0.088500	19	-3.325820	-3.394934	0.560569
0.089500	22	-2.268654	-2.194158	0.422239
0.090500	15	-1.461739	-1.442883	0.179892
0.091500	15	-1.031597	-1.011058	0.120341
0.092500	15	-0.736307	-0.740852	0.091088
0.093500	15	-0.526792	-0.521152	0.082701
0.094500	15	-0.372665	-0.373423	0.060689
0.095500	15	-0.278303	-0.290088	0.050953
0.096500	19	-0.196453	-0.165086	0.053183
0.097500	15	-0.143116	-0.147409	0.030415
0.098500	15	-0.124850	-0.128469	0.042944
0.099500	15	-0.096482	-0.094378	0.045804
0.100500	15	-0.082256	-0.070388	0.039078
0.101500	15	-0.062138	-0.077963	0.040138
0.102500	15	-0.043956	-0.055236	0.040259
0.103500	19	-0.038888	-0.027458	0.026764
0.104500	22	-0.039624	-0.033140	0.038723
0.105500	15	-0.034696	-0.032508	0.038668
0.106500	15	-0.026952	-0.031246	0.034736
0.107500	15	-0.027372	-0.026195	0.035785
0.108500	15	-0.018954	-0.022407	0.040461
0.109500	15	-0.016598	-0.011043	0.029816
0.110500	15	-0.023416	-0.026195	0.027688
0.111500	15	-0.023753	-0.022407	0.041618
0.112500	19	-0.018618	-0.012306	0.037624
0.113500	15	-0.026699	-0.022407	0.035598
0.114500	15	-0.009610	0.000321	0.035452
0.115500	15	-0.017523	-0.013569	0.036486
0.116500	15	-0.019965	-0.021144	0.026480
0.117500	15	-0.020891	-0.004730	0.042619
0.118500	15	-0.009273	-0.013569	0.039043
0.119500	19	-0.010244	-0.011043	0.039842
