x 15.250000
w 47.025316
wstd 0.023131
# theta(rad)	count	mean(uA)	median(uA)	std dev(uA)
0.000500	17	-0.056274	-0.031246	0.083575
0.001500	18	-0.048852	-0.045135	0.062261
0.002500	15	-0.058266	-0.042609	0.069084
0.003500	15	-0.060454	-0.052711	0.071399
0.004500	15	-0.066010	-0.057761	0.064732
0.005500	15	-0.046733	-0.029983	0.077634
0.006500	17	-0.069867	-0.027458	0.088110
0.007500	17	-0.064519	-0.066600	0.073584
0.008500	17	-0.053453	-0.029983	0.070662
0.009500	16	-0.061943	-0.033140	0.084296
0.010500	18	-0.052780	-0.043241	0.062086
0.011500	15	-0.058686	-0.038821	0.072626
0.012500	15	-0.066683	-0.053973	0.080120
0.013500	15	-0.068535	-0.062812	0.086558
0.014500	15	-0.064158	-0.041347	0.069628
0.015500	15	-0.070219	-0.059024	0.068287
0.016500	17	-0.088287	-0.067862	0.068281
0.017500	18	-0.078454	-0.060286	0.064711
0.018500	15	-0.081162	-0.052711	0.086307
0.019500	15	-0.094546	-0.060286	0.083825
0.020500	15	-0.102627	-0.079226	0.076058
0.021500	15	-0.111634	-0.105742	0.076112
0.022500	19	-0.149403	-0.125944	0.089279
0.023500	16	-0.141490	-0.125313	0.077883
0.024500	16	-0.170689	-0.139202	0.093393
0.025500	16	-0.194206	-0.154985	0.101968
0.026500	18	-0.220713	-0.192864	0.104229
0.027500	15	-0.281249	-0.254734	0.111300
0.028500	15	-0.348085	-0.320391	0.108086
0.029500	15	-0.430999	-0.396150	0.120117
0.030500	15	-0.507768	-0.487061	0.142216
0.031500	15	-0.635211	-0.614588	0.165429
0.032500	19	-0.827244	-0.779994	0.187514
0.033500	16	-1.088948	-1.019266	0.211460
0.034500	15	-1.406267	-1.336821	0.247074
0.035500	15	-1.803242	-1.672685	0.285842
0.036500	15	-2.326146	-2.197945	0.358385
0.037500	17	-3.088631	-2.886087	0.484734
0.038500	17	-4.001449	-3.881052	0.605868
0.039500	16	-5.140462	-5.142434	0.740065
0.040500	16	-6.272029	-6.297756	0.855903
0.041500	16	-7.598439	-7.651944	0.924666
0.042500	18	-8.930933	-8.903858	1.046523
0.043500	15	-10.063890	-10.086956	1.114558
0.044500	15	-10.789070	-10.797824	1.138717
0.045500	15	-11.192275	-11.205660	1.077278
0.046500	15	-11.355325	-11.403896	0.961177
0.047500	17	-11.400776	-11.419048	0.896878
0.048500	17	-11.503049	-11.497328	0.912018
0.049500	16	-11.634011	-11.658318	0.939770
0.050500	15	-11.905922	-11.994812	0.974316
0.051500	15	-11.919642	-12.094560	0.961368
0.052500	15	-11.663831	-11.857184	0.869409
0.053500	17	-11.236780	-11.415260	0.769007
0.054500	17	-10.455053	-10.682924	0.655159
0.055500	16	-9.887930	-9.937964	0.604142
0.056500	16	-9.331104	-9.335680	0.566129
0.057500	16	-9.087729	-9.090728	0.491598
0.058500	18	-9.053269	-9.119768	0.471816
0.059500	15	-9.206302	-9.280124	0.621803
0.060500	15	-9.454033	-9.578108	0.730374
0.061500	15	-9.572301	-9.676596	0.805162
0.062500	15	-9.464218	-9.557908	0.801303
0.063500	17	-9.189883	-9.215728	0.739176
0.064500	17	-8.843398	-8.985928	0.735262
0.065500	16	-8.639569	-8.605872	0.665600
0.066500	15	-8.667321	-8.753600	0.651972
0.067500	15	-8.875994	-8.966988	0.645874
0.068500	17	-9.462763	-9.379872	0.778687
0.069500	15	-10.271217	-10.151352	1.003350
0.070500	17	-11.331998	-11.148840	1.173803
0.071500	16	-11.988421	-12.187998	1.244726
0.072500	16	-11.934127	-12.256180	1.315331
0.073500	16	-11.861051	-11.973980	1.097208
0.074500	18	-11.715628	-11.821198	0.998137
0.075500	15	-11.625362	-11.805416	1.019513
0.076500	15	-11.881427	-12.055420	1.045876
0.077500	15	-12.297258	-12.568052	1.120309
0.078500	15	-12.803915	-13.059224	1.267255
0.079500	17	-13.282266	-13.386248	1.395453
0.080500	17	-13.150579	-13.325640	1.554832
0.081500	16	-12.696606	-12.851516	1.470144
0.082500	15	-12.032945	-12.219564	1.440624
0.083500	15	-10.983686	-11.230912	1.374741
0.084500	17	-9.621261	-9.925336	1.225279
0.085500	17	-7.927088	-8.091976	1.057311
0.086500	16	-6.291916	-6.189168	0.923420
0.087500	16	-4.862917	-4.615280	0.851736
0.088500	15	-3.760932	-3.560340	0.701496
0.089500	16	-2.801332	-2.684695	0.553925
0.090500	18	-2.041588	-1.937209	0.419137
0.091500	15	-1.382108	-1.338084	0.178258
0.092500	15	-1.007439	-0.976967	0.134412
0.093500	15	-0.729489	-0.711812	0.091854
0.094500	15	-0.541859	-0.537566	0.070075
0.095500	17	-0.390580	-0.378473	0.073381
0.096500	17	-0.299743	-0.297664	0.050909
0.097500	16	-0.234610	-0.233269	0.044295
0.098500	15	-0.169800	-0.177712	0.056963
0.099500	15	-0.153470	-0.149934	0.042297
0.100500	17	-0.140502	-0.144884	0.041497
0.101500	17	-0.116437	-0.123419	0.037044
0.102500	16	-0.096824	-0.093115	0.024925
0.103500	16	-0.095246	-0.103216	0.035104
0.104500	15	-0.079142	-0.060286	0.046277
0.105500	16	-0.071334	-0.059024	0.041807
0.106500	18	-0.069265	-0.073544	0.037963
0.107500	15	-0.062474	-0.071650	0.049178
0.108500	15	-0.065758	-0.067862	0.033901
0.109500	15	-0.066599	-0.070388	0.036923
0.110500	15	-0.055404	-0.042609	0.037371
0.111500	17	-0.055459	-0.056498	0.043391
0.112500	17	-0.059989	-0.053973	0.031060
0.113500	16	-0.055946	-0.061549	0.037862
0.114500	15	-0.065253	-0.065337	0.030210
0.115500	17	-0.052711	-0.059024	0.020865
0.116500	15	-0.052290	-0.060286	0.039558
0.117500	17	-0.048477	-0.053973	0.032197
0.118500	16	-0.056025	-0.055236	0.027648
0.119500	16	-0.051211	-0.039453	0.044849
