x 17.500000
w 47.447382
wstd 0.011861
# theta(rad)	count	mean(uA)	median(uA)	std dev(uA)
0.000500	15	-0.047239	-0.042609	0.044593
0.001500	15	-0.057845	-0.066600	0.040660
0.002500	15	-0.062559	-0.059024	0.039846
0.003500	15	-0.054983	-0.057761	0.047597
0.004500	15	-0.049175	-0.041347	0.047503
0.005500	19	-0.048058	-0.042609	0.056566
0.006500	16	-0.057523	-0.045135	0.073065
0.007500	18	-0.091993	-0.082383	0.102241
0.008500	15	-0.078132	-0.056498	0.069293
0.009500	15	-0.073334	-0.070388	0.064690
0.010500	15	-0.067694	-0.051448	0.057964
0.011500	15	-0.065758	-0.048923	0.051172
0.012500	15	-0.069798	-0.060286	0.058339
0.013500	15	-0.068115	-0.053973	0.058356
0.014500	16	-0.086486	-0.084277	0.056311
0.015500	16	-0.078989	-0.072282	0.041978
0.016500	20	-0.077269	-0.074175	0.048321
0.017500	15	-0.076532	-0.088065	0.042487
0.018500	15	-0.087728	-0.095640	0.043782
0.019500	15	-0.106499	-0.091853	0.049787
0.020500	15	-0.121230	-0.103216	0.047312
0.021500	15	-0.134362	-0.110792	0.052695
0.022500	15	-0.139581	-0.136045	0.043745
0.023500	15	-0.136634	-0.123419	0.047086
0.024500	19	-0.165285	-0.154985	0.045094
0.025500	16	-0.220800	-0.225062	0.052087
0.026500	18	-0.265817	-0.252209	0.055093
0.027500	15	-0.317950	-0.301452	0.052075
0.028500	15	-0.377884	-0.368372	0.058037
0.029500	15	-0.438743	-0.413827	0.069347
0.030500	15	-0.543880	-0.540092	0.070651
0.031500	15	-0.682855	-0.658780	0.087501
0.032500	15	-0.867622	-0.872168	0.097766
0.033500	16	-1.116884	-1.110808	0.112260
0.034500	16	-1.444856	-1.428363	0.150968
0.035500	20	-1.958232	-1.936578	0.238021
0.036500	15	-2.591722	-2.532546	0.300487
0.037500	15	-3.301834	-3.245941	0.375773
0.038500	15	-4.142167	-4.113380	0.452846
0.039500	15	-5.069958	-5.056576	0.536700
0.040500	15	-6.081086	-6.009872	0.607341
0.041500	15	-7.101977	-7.104588	0.677012
0.042500	19	-8.182685	-7.963184	0.738435
0.043500	15	-9.214551	-9.258660	0.729427
0.044500	16	-9.921154	-9.990362	0.741949
0.045500	18	-10.380169	-10.324964	0.702943
0.046500	15	-10.583343	-10.545296	0.643556
0.047500	15	-10.663732	-10.643780	0.590049
0.048500	15	-10.716846	-10.687972	0.571266
0.049500	15	-10.815923	-10.749844	0.579008
0.050500	15	-10.933012	-10.869796	0.603625
0.051500	16	-11.054852	-11.136214	0.594933
0.052500	16	-10.945633	-10.963232	0.623576
0.053500	20	-10.857042	-10.964492	0.522645
0.054500	15	-10.460445	-10.557920	0.502438
0.055500	15	-10.145963	-10.218272	0.464675
0.056500	15	-9.869106	-9.936700	0.418480
0.057500	15	-9.681898	-9.802860	0.406242
0.058500	15	-9.612285	-9.724576	0.444344
0.059500	15	-9.689727	-9.714476	0.508181
0.060500	15	-9.832658	-9.873568	0.580949
0.061500	19	-9.914637	-10.027612	0.635294
0.062500	16	-10.009539	-10.220796	0.601643
0.063500	18	-9.879179	-10.015614	0.581163
0.064500	15	-9.649322	-9.913972	0.593932
0.065500	15	-9.443595	-9.687960	0.551590
0.066500	15	-9.332482	-9.618512	0.525395
0.067500	15	-9.357651	-9.626088	0.520432
0.068500	15	-9.580466	-9.860940	0.538523
0.069500	15	-9.990742	-10.211956	0.618212
0.070500	16	-10.561789	-10.766258	0.742891
0.071500	16	-10.917224	-11.146946	0.868798
0.072500	20	-11.421698	-11.684832	0.919006
0.073500	15	-11.403726	-11.828144	0.919177
0.074500	15	-11.374601	-11.725868	0.896388
0.075500	15	-11.351705	-11.617280	0.885116
0.076500	15	-11.359533	-11.650112	0.885504
0.077500	15	-11.430326	-11.729656	0.911038
0.078500	15	-11.599099	-11.984712	0.973354
0.079500	19	-11.697958	-12.119812	1.049366
0.080500	15	-11.826207	-12.360980	1.130510
0.081500	16	-11.654687	-12.090772	1.140427
0.082500	18	-11.061577	-11.215760	1.114857
0.083500	15	-10.217344	-10.368524	1.126897
0.084500	15	-9.151419	-9.151336	1.033515
0.085500	15	-7.919666	-7.848284	0.898050
0.086500	15	-6.650623	-6.521244	0.739466
0.087500	15	-5.405571	-5.243448	0.604793
0.088500	16	-4.279101	-4.071710	0.478502
0.089500	16	-3.201275	-3.087479	0.410699
0.090500	15	-2.425222	-2.360827	0.323294
0.091500	20	-1.706271	-1.695412	0.270648
0.092500	15	-1.184294	-1.196668	0.165486
0.093500	15	-0.860214	-0.860804	0.118049
0.094500	15	-0.636558	-0.634790	0.089419
0.095500	15	-0.478054	-0.459282	0.061096
0.096500	15	-0.348927	-0.340594	0.056645
0.097500	15	-0.246737	-0.242107	0.054190
0.098500	19	-0.194060	-0.186551	0.048394
0.099500	16	-0.151907	-0.144252	0.050885
0.100500	15	-0.134193	-0.129732	0.053311
0.101500	18	-0.124962	-0.133520	0.044537
0.102500	15	-0.094125	-0.103216	0.058847
0.103500	15	-0.075354	-0.077963	0.043345
0.104500	15	-0.073081	-0.075438	0.041310
0.105500	15	-0.060707	-0.062812	0.039096
0.106500	16	-0.057130	-0.043241	0.038910
0.107500	15	-0.069377	-0.070388	0.052452
0.108500	16	-0.057129	-0.053973	0.042070
0.109500	20	-0.057571	-0.067862	0.043855
0.110500	15	-0.038484	-0.028720	0.034433
0.111500	15	-0.040842	-0.022407	0.038516
0.112500	15	-0.055741	-0.066600	0.043085
0.113500	15	-0.055319	-0.062812	0.049225
0.114500	15	-0.049006	-0.042609	0.052022
0.115500	15	-0.048922	-0.064074	0.046873
0.116500	19	-0.025728	-0.027458	0.043840
0.117500	15	-0.033097	-0.026195	0.041812
0.118500	16	-0.032823	-0.036927	0.048132
0.119500	18	-0.053481	-0.054604	0.047003
