x 17.750000
w 47.416178
wstd 0.007984
# theta(rad)	count	mean(uA)	median(uA)	std dev(uA)
0.000500	15	-0.105489	-0.080489	0.105214
0.001500	15	-0.095977	-0.056498	0.125885
0.002500	15	-0.101954	-0.077963	0.129721
0.003500	15	-0.102543	-0.060286	0.135882
0.004500	17	-0.096383	-0.056498	0.162985
0.005500	21	-0.115843	-0.065337	0.199460
0.006500	15	-0.158268	-0.088065	0.297014
0.007500	15	-0.151113	-0.061549	0.324778
0.008500	15	-0.152712	-0.047660	0.330470
0.009500	15	-0.147914	-0.064074	0.302866
0.010500	15	-0.134698	-0.065337	0.271522
0.011500	15	-0.139496	-0.077963	0.246205
0.012500	17	-0.200811	-0.100691	0.305155
0.013500	18	-0.129241	-0.081751	0.214573
0.014500	17	-0.129583	-0.067862	0.209851
0.015500	15	-0.133772	-0.077963	0.215892
0.016500	15	-0.130489	-0.070388	0.225070
0.017500	15	-0.149008	-0.089327	0.227057
0.018500	15	-0.163066	-0.101954	0.236176
0.019500	15	-0.174093	-0.105742	0.242397
0.020500	15	-0.178470	-0.123419	0.238226
0.021500	15	-0.178975	-0.122156	0.218594
0.022500	17	-0.182837	-0.139833	0.210529
0.023500	21	-0.195991	-0.162561	0.189817
0.024500	15	-0.256165	-0.195389	0.233902
0.025500	15	-0.289330	-0.230744	0.236403
0.026500	15	-0.321065	-0.264835	0.231821
0.027500	15	-0.347833	-0.292613	0.219940
0.028500	15	-0.408777	-0.365847	0.203021
0.029500	15	-0.473845	-0.423928	0.197334
0.030500	15	-0.585884	-0.532516	0.182511
0.031500	17	-0.757861	-0.684033	0.242822
0.032500	18	-0.916851	-0.886057	0.186391
0.033500	17	-1.190428	-1.176465	0.194866
0.034500	15	-1.549114	-1.557784	0.232691
0.035500	15	-1.983464	-1.998448	0.280672
0.036500	15	-2.537260	-2.523708	0.324198
0.037500	15	-3.223803	-3.263618	0.397081
0.038500	15	-4.015482	-4.065400	0.478628
0.039500	15	-4.911371	-4.989656	0.549735
0.040500	17	-5.978975	-5.974520	0.703357
0.041500	21	-7.232654	-7.107112	0.836657
0.042500	15	-8.406121	-7.984652	0.827397
0.043500	15	-9.241319	-8.887440	0.858270
0.044500	15	-9.871295	-9.648816	0.842163
0.045500	15	-10.274331	-10.189228	0.796660
0.046500	15	-10.478207	-10.449336	0.740825
0.047500	15	-10.577619	-10.671560	0.681579
0.048500	15	-10.640920	-10.847068	0.643357
0.049500	17	-10.775691	-10.930400	0.677181
0.050500	18	-10.796983	-10.792774	0.685254
0.051500	17	-10.982691	-11.242276	0.689121
0.052500	15	-10.896648	-11.107172	0.694468
0.053500	15	-10.753800	-10.939240	0.679873
0.054500	15	-10.500093	-10.607164	0.639245
0.055500	15	-10.192344	-10.239736	0.597417
0.056500	15	-9.895959	-9.948064	0.566838
0.057500	15	-9.648985	-9.763716	0.534766
0.058500	15	-9.530213	-9.666496	0.532035
0.059500	17	-9.588136	-9.739728	0.595535
0.060500	21	-9.708041	-9.887456	0.673974
0.061500	15	-9.884932	-9.891244	0.729241
0.062500	15	-9.924999	-9.978368	0.741261
0.063500	15	-9.821631	-9.812960	0.709413
0.064500	15	-9.622554	-9.691748	0.659024
0.065500	15	-9.410429	-9.496036	0.606938
0.066500	15	-9.278777	-9.386188	0.566137
0.067500	17	-9.287626	-9.362196	0.551729
0.068500	18	-9.411720	-9.266866	0.576249
0.069500	15	-9.918939	-9.892508	0.654898
0.070500	17	-10.518037	-10.704388	0.813849
0.071500	15	-10.909106	-10.709440	0.968356
0.072500	15	-11.238151	-10.946816	1.018652
0.073500	15	-11.389332	-11.179144	1.029313
0.074500	15	-11.420982	-11.390004	1.022534
0.075500	15	-11.400443	-11.448088	1.011823
0.076500	15	-11.376453	-11.453136	0.985881
0.077500	17	-11.489234	-11.488492	0.974888
0.078500	21	-11.601168	-11.665264	1.072416
0.079500	15	-11.823430	-11.890012	1.125079
0.080500	15	-11.884625	-12.102136	1.197046
0.081500	15	-11.729994	-12.073096	1.244519
0.082500	15	-11.296317	-11.579400	1.236386
0.083500	15	-10.549757	-10.663984	1.187818
0.084500	15	-9.574994	-9.477096	1.095424
0.085500	17	-8.311156	-8.209400	1.025781
0.086500	15	-6.961234	-6.939180	0.821984
0.087500	18	-5.533224	-5.554058	0.750829
0.088500	17	-4.318076	-4.293936	0.652794
0.089500	15	-3.233820	-3.266144	0.472703
0.090500	15	-2.455104	-2.459313	0.362113
0.091500	15	-1.819573	-1.800212	0.278501
0.092500	15	-1.339262	-1.263588	0.215221
0.093500	15	-0.994981	-0.922673	0.178301
0.094500	15	-0.718967	-0.677720	0.133248
0.095500	17	-0.525311	-0.509788	0.098270
0.096500	15	-0.365931	-0.363321	0.045669
0.097500	21	-0.262250	-0.261047	0.063781
0.098500	15	-0.209531	-0.196652	0.061350
0.099500	15	-0.187561	-0.175187	0.057553
0.100500	15	-0.147072	-0.147409	0.052640
0.101500	15	-0.112812	-0.108267	0.052926
0.102500	15	-0.096819	-0.108267	0.042350
0.103500	15	-0.085707	-0.081751	0.050930
0.104500	17	-0.089698	-0.094378	0.066965
0.105500	18	-0.072702	-0.067231	0.042889
0.106500	17	-0.077295	-0.080489	0.037907
0.107500	15	-0.060875	-0.056498	0.037790
0.108500	15	-0.049175	-0.029983	0.044796
0.109500	15	-0.055151	-0.046397	0.051818
0.110500	15	-0.050185	-0.035033	0.042319
0.111500	15	-0.049259	-0.038821	0.047094
0.112500	15	-0.059360	-0.067862	0.053048
0.113500	17	-0.051002	-0.057761	0.034112
0.114500	15	-0.035286	-0.035033	0.034346
0.115500	21	-0.029862	-0.017356	0.047411
0.116500	15	-0.038484	-0.050185	0.043462
0.117500	15	-0.050353	-0.042609	0.047001
0.118500	15	-0.051700	-0.041347	0.045024
0.119500	15	-0.036043	-0.024932	0.036703
