x 18.250000
w 47.207009
wstd 0.008248
# theta(rad)	count	mean(uA)	median(uA)	std dev(uA)
0.000500	15	-0.029394	-0.027458	0.023199
0.001500	19	-0.031179	-0.029983	0.032338
0.002500	18	-0.049834	-0.048923	0.030303
0.003500	15	-0.028299	-0.026195	0.031912
0.004500	15	-0.030572	-0.021144	0.036766
0.005500	15	-0.049427	-0.046397	0.047010
0.006500	15	-0.048417	-0.045135	0.034332
0.007500	15	-0.046481	-0.045135	0.031050
0.008500	15	-0.054142	-0.045135	0.039747
0.009500	16	-0.049159	-0.040715	0.049099
0.010500	19	-0.052843	-0.037559	0.045150
0.011500	18	-0.051518	-0.055236	0.038000
0.012500	15	-0.059360	-0.062812	0.028498
0.013500	15	-0.065758	-0.057761	0.032659
0.014500	15	-0.064327	-0.067862	0.032920
0.015500	15	-0.065674	-0.065337	0.028307
0.016500	15	-0.069546	-0.067862	0.039383
0.017500	15	-0.059950	-0.052711	0.029491
0.018500	19	-0.082615	-0.084277	0.034048
0.019500	18	-0.101673	-0.091853	0.029349
0.020500	15	-0.103385	-0.099428	0.039947
0.021500	15	-0.116180	-0.110792	0.034494
0.022500	15	-0.132510	-0.115843	0.043523
0.023500	15	-0.139665	-0.138570	0.039333
0.024500	15	-0.175945	-0.182763	0.028439
0.025500	15	-0.203218	-0.208016	0.026200
0.026500	16	-0.246369	-0.241476	0.032813
0.027500	19	-0.307566	-0.297664	0.053965
0.028500	18	-0.375036	-0.375316	0.061868
0.029500	15	-0.456168	-0.470646	0.071804
0.030500	15	-0.570311	-0.570395	0.082807
0.031500	15	-0.725785	-0.708024	0.093736
0.032500	15	-0.909794	-0.887319	0.120648
0.033500	15	-1.159462	-1.134798	0.163274
0.034500	15	-1.474449	-1.446671	0.204502
0.035500	19	-1.950998	-1.910062	0.283189
0.036500	18	-2.635452	-2.656286	0.311349
0.037500	15	-3.453857	-3.542663	0.344578
0.038500	15	-4.282068	-4.355808	0.422148
0.039500	15	-5.234945	-5.373500	0.505306
0.040500	15	-6.273260	-6.456848	0.601314
0.041500	15	-7.329421	-7.527572	0.697625
0.042500	15	-8.339369	-8.508648	0.783689
0.043500	16	-9.398734	-9.435430	0.983231
0.044500	19	-10.079778	-9.955640	0.953309
0.045500	18	-10.608357	-10.398828	0.890528
0.046500	15	-10.753800	-10.501104	0.807210
0.047500	15	-10.803043	-10.588224	0.730692
0.048500	15	-10.816343	-10.658932	0.674657
0.049500	15	-10.889240	-10.801612	0.654161
0.050500	15	-11.008854	-10.935452	0.664438
0.051500	15	-11.072661	-11.026364	0.651287
0.052500	19	-11.007424	-10.897572	0.625418
0.053500	18	-10.893434	-10.784566	0.554116
0.054500	15	-10.605650	-10.494788	0.562870
0.055500	15	-10.273911	-10.172816	0.516315
0.056500	15	-9.956734	-9.853364	0.475418
0.057500	15	-9.678531	-9.650080	0.438410
0.058500	15	-9.557570	-9.612200	0.450545
0.059500	16	-9.628062	-9.740358	0.516912
0.060500	15	-9.700586	-9.898820	0.581833
0.061500	19	-9.895099	-10.062964	0.644607
0.062500	18	-10.014212	-10.116626	0.696473
0.063500	15	-9.914394	-9.987208	0.704127
0.064500	15	-9.753869	-9.857152	0.685164
0.065500	15	-9.564978	-9.706900	0.649262
0.066500	15	-9.422635	-9.527604	0.626596
0.067500	15	-9.393678	-9.555380	0.613074
0.068500	19	-9.498097	-9.589472	0.639710
0.069500	15	-9.943014	-9.982156	0.661696
0.070500	18	-10.410753	-10.446178	0.723973
0.071500	15	-10.918196	-11.196820	0.864306
0.072500	15	-11.255828	-11.440512	0.960149
0.073500	15	-11.443289	-11.552888	1.035852
0.074500	15	-11.508862	-11.600868	1.069641
0.075500	15	-11.490512	-11.666524	1.075384
0.076500	16	-11.579560	-11.679152	1.070044
0.077500	19	-11.588639	-11.810464	0.989593
0.078500	15	-11.690093	-11.968296	1.075383
0.079500	18	-11.891626	-12.271332	1.123348
0.080500	15	-11.945990	-12.290272	1.195376
0.081500	15	-11.806173	-12.172844	1.220060
0.082500	15	-11.398760	-11.669052	1.222701
0.083500	15	-10.697149	-10.946816	1.179098
0.084500	15	-9.722303	-9.871044	1.078123
0.085500	19	-8.310545	-8.339452	1.106918
0.086500	18	-6.845113	-6.830592	0.890538
0.087500	15	-5.483686	-5.258600	0.751175
0.088500	15	-4.350335	-4.171460	0.602117
0.089500	15	-3.387863	-3.274982	0.498369
0.090500	15	-2.568574	-2.509819	0.394505
0.091500	15	-1.910567	-1.887334	0.291574
0.092500	15	-1.422176	-1.411317	0.220383
0.093500	16	-1.039942	-1.035680	0.179763
0.094500	19	-0.715267	-0.697922	0.122725
0.095500	15	-0.531001	-0.503475	0.089747
0.096500	18	-0.391380	-0.382892	0.069637
0.097500	15	-0.281418	-0.291351	0.034606
0.098500	15	-0.244717	-0.250946	0.030654
0.099500	15	-0.194043	-0.194127	0.027165
0.100500	15	-0.162477	-0.167611	0.020626
0.101500	15	-0.136045	-0.124681	0.032412
0.102500	19	-0.118036	-0.113318	0.035135
0.103500	18	-0.105882	-0.110161	0.029781
0.104500	15	-0.095725	-0.096903	0.042358
0.105500	15	-0.098755	-0.093115	0.036609
0.106500	15	-0.090253	-0.079226	0.035334
0.107500	15	-0.089243	-0.079226	0.049634
0.108500	15	-0.078637	-0.077963	0.029431
0.109500	15	-0.082930	-0.089327	0.029397
0.110500	16	-0.086407	-0.071650	0.044888
0.111500	19	-0.076036	-0.072913	0.035523
0.112500	15	-0.089580	-0.088065	0.032800
0.113500	18	-0.083365	-0.075438	0.036607
0.114500	15	-0.079310	-0.071650	0.042184
0.115500	15	-0.065926	-0.056498	0.043498
0.116500	15	-0.077206	-0.071650	0.024031
0.117500	15	-0.083772	-0.076701	0.040825
0.118500	15	-0.078805	-0.077963	0.037856
0.119500	19	-0.078296	-0.067862	0.047135
