x 20.125000
w 47.330963
wstd 0.004470
# theta(rad)	count	mean(uA)	median(uA)	std dev(uA)
0.000500	20	-0.075754	-0.076069	0.041025
0.001500	15	-0.080152	-0.083014	0.049016
0.002500	15	-0.082256	-0.099428	0.047517
0.003500	15	-0.068199	-0.077963	0.047344
0.004500	15	-0.091937	-0.108267	0.047360
0.005500	15	-0.086634	-0.091853	0.041397
0.006500	15	-0.084445	-0.090590	0.041173
0.007500	15	-0.080404	-0.101954	0.049581
0.008500	23	-0.079061	-0.075438	0.043809
0.009500	17	-0.089996	-0.091853	0.039736
0.010500	15	-0.093704	-0.114580	0.044155
0.011500	15	-0.084698	-0.107004	0.050095
0.012500	15	-0.092694	-0.103216	0.038755
0.013500	15	-0.096230	-0.109530	0.036861
0.014500	15	-0.094125	-0.095640	0.039940
0.015500	15	-0.105152	-0.114580	0.038524
0.016500	15	-0.106163	-0.118368	0.040362
0.017500	20	-0.121272	-0.117105	0.051010
0.018500	15	-0.112728	-0.119631	0.042016
0.019500	15	-0.117358	-0.133520	0.051622
0.020500	15	-0.144547	-0.165086	0.046909
0.021500	15	-0.156921	-0.158773	0.041935
0.022500	15	-0.163739	-0.176450	0.045606
0.023500	15	-0.190676	-0.199177	0.041499
0.024500	15	-0.205406	-0.199177	0.038845
0.025500	15	-0.234700	-0.228218	0.035748
0.026500	23	-0.274442	-0.278724	0.044468
0.027500	17	-0.351809	-0.351958	0.035138
0.028500	15	-0.420898	-0.421403	0.055713
0.029500	15	-0.501034	-0.512314	0.050572
0.030500	15	-0.618207	-0.627214	0.040077
0.031500	15	-0.756677	-0.745903	0.067712
0.032500	15	-0.930333	-0.925199	0.096958
0.033500	15	-1.190354	-1.185304	0.121270
0.034500	15	-1.522514	-1.485813	0.160716
0.035500	20	-2.034812	-1.938472	0.256576
0.036500	15	-2.676404	-2.758560	0.316428
0.037500	15	-3.354697	-3.410085	0.388742
0.038500	15	-4.170703	-4.247220	0.479071
0.039500	15	-5.077030	-5.214404	0.566970
0.040500	15	-6.054739	-6.230836	0.674573
0.041500	15	-7.063845	-7.187920	0.772256
0.042500	15	-8.037934	-8.176572	0.874200
0.043500	15	-8.907813	-9.073052	0.942791
0.044500	23	-9.718098	-9.669020	1.063558
0.045500	17	-10.299228	-10.506152	0.914909
0.046500	15	-10.500850	-10.554132	0.849995
0.047500	15	-10.544790	-10.552872	0.795009
0.048500	15	-10.551525	-10.579388	0.751465
0.049500	15	-10.592434	-10.671560	0.729112
0.050500	15	-10.658261	-10.669036	0.748760
0.051500	15	-10.752875	-10.711964	0.764776
0.052500	15	-10.831159	-10.762472	0.764646
0.053500	20	-10.829074	-10.815500	0.671349
0.054500	15	-10.565077	-10.527620	0.716479
0.055500	15	-10.284095	-10.184180	0.642246
0.056500	15	-9.939141	-9.816748	0.585263
0.057500	15	-9.630383	-9.538968	0.547304
0.058500	15	-9.421878	-9.367248	0.520809
0.059500	15	-9.332819	-9.364720	0.534555
0.060500	15	-9.372045	-9.424064	0.576857
0.061500	23	-9.481873	-9.499824	0.716337
0.062500	17	-9.692415	-9.652604	0.699504
0.063500	15	-9.744778	-9.795284	0.752288
0.064500	15	-9.697892	-9.794020	0.763618
0.065500	15	-9.575584	-9.631140	0.741575
0.066500	15	-9.434420	-9.444268	0.680095
0.067500	15	-9.351590	-9.329368	0.628836
0.068500	15	-9.381978	-9.301588	0.584078
0.069500	15	-9.566493	-9.483412	0.589061
0.070500	15	-9.891245	-9.796548	0.646539
0.071500	20	-10.426102	-10.516256	0.691267
0.072500	15	-10.831411	-10.901360	0.868771
0.073500	15	-11.133688	-11.163992	0.936078
0.074500	15	-11.336722	-11.339500	0.987129
0.075500	15	-11.452464	-11.425360	1.020208
0.076500	15	-11.485798	-11.400108	1.017117
0.077500	15	-11.519468	-11.451876	1.003231
0.078500	15	-11.591944	-11.559200	0.977585
0.079500	23	-11.660980	-11.366016	1.083255
0.080500	17	-11.984340	-11.816780	1.083188
0.081500	15	-11.947589	-11.873600	1.206774
0.082500	15	-11.735465	-11.770060	1.262030
0.083500	15	-11.234363	-11.345812	1.284760
0.084500	15	-10.428543	-10.686712	1.247767
0.085500	15	-9.364638	-9.725840	1.143467
0.086500	15	-8.135747	-8.426576	1.005260
0.087500	15	-6.849279	-6.945492	0.868554
0.088500	20	-5.420532	-5.432212	0.718059
0.089500	15	-4.114978	-4.213128	0.537523
0.090500	15	-3.190301	-3.310336	0.436940
0.091500	15	-2.417057	-2.513607	0.355755
0.092500	15	-1.808461	-1.865870	0.260093
0.093500	15	-1.335138	-1.360811	0.194229
0.094500	15	-0.980587	-1.000957	0.159563
0.095500	15	-0.716610	-0.709286	0.122982
0.096500	15	-0.529654	-0.504738	0.090764
0.097500	23	-0.364968	-0.345644	0.092886
0.098500	17	-0.278204	-0.267360	0.069161
0.099500	15	-0.197326	-0.199177	0.058202
0.100500	15	-0.175524	-0.180238	0.061866
0.101500	15	-0.145220	-0.138570	0.047467
0.102500	15	-0.105994	-0.077963	0.051995
0.103500	15	-0.099092	-0.093115	0.051005
0.104500	15	-0.093115	-0.090590	0.050649
0.105500	15	-0.071987	-0.066600	0.044365
0.106500	20	-0.074112	-0.064074	0.046604
0.107500	15	-0.062559	-0.048923	0.057224
0.108500	15	-0.057003	-0.050185	0.041857
0.109500	15	-0.059192	-0.052711	0.039335
0.110500	15	-0.047996	-0.042609	0.041110
0.111500	15	-0.045302	-0.032508	0.046793
0.112500	15	-0.051279	-0.037559	0.041661
0.113500	15	-0.042441	-0.032508	0.043718
0.114500	23	-0.032891	-0.033771	0.050822
0.115500	15	-0.046818	-0.036296	0.042676
0.116500	17	-0.039266	-0.035033	0.044419
0.117500	15	-0.035538	-0.033771	0.045320
0.118500	15	-0.037221	-0.033771	0.052116
0.119500	15	-0.036043	-0.031246	0.042859
