x 19.625000
w 47.240474
wstd 0.007679
# theta(rad)	count	mean(uA)	median(uA)	std dev(uA)
0.000500	15	-0.036968	-0.046397	0.043436
0.001500	15	-0.055993	-0.062812	0.040215
0.002500	15	-0.041599	-0.038821	0.040983
0.003500	19	-0.048058	-0.057761	0.035371
0.004500	17	-0.061178	-0.067862	0.037310
0.005500	15	-0.056161	-0.064074	0.037752
0.006500	15	-0.042020	-0.036296	0.037640
0.007500	15	-0.058855	-0.062812	0.041933
0.008500	15	-0.058434	-0.065337	0.039492
0.009500	15	-0.051279	-0.042609	0.038610
0.010500	15	-0.066263	-0.066600	0.040498
0.011500	21	-0.061789	-0.055236	0.040625
0.012500	18	-0.067301	-0.070388	0.038759
0.013500	15	-0.066936	-0.072913	0.040293
0.014500	15	-0.070808	-0.083014	0.043717
0.015500	15	-0.076869	-0.085539	0.033524
0.016500	15	-0.090085	-0.089327	0.039478
0.017500	15	-0.081162	-0.091853	0.036786
0.018500	15	-0.092526	-0.098166	0.045725
0.019500	15	-0.096314	-0.107004	0.037142
0.020500	19	-0.097368	-0.103216	0.048178
0.021500	17	-0.124978	-0.123419	0.043064
0.022500	15	-0.137392	-0.156247	0.046102
0.023500	15	-0.150355	-0.156247	0.038769
0.024500	15	-0.167948	-0.157510	0.041863
0.025500	15	-0.204060	-0.197915	0.055799
0.026500	15	-0.225693	-0.223168	0.041220
0.027500	15	-0.259279	-0.252209	0.045809
0.028500	15	-0.326620	-0.336806	0.052805
0.029500	24	-0.402674	-0.410670	0.053093
0.030500	15	-0.532600	-0.541354	0.055840
0.031500	15	-0.653309	-0.647416	0.059235
0.032500	15	-0.812907	-0.816611	0.072031
0.033500	15	-1.023853	-1.022422	0.089378
0.034500	15	-1.320743	-1.327982	0.114210
0.035500	15	-1.673358	-1.675210	0.139502
0.036500	15	-2.130268	-2.108298	0.176479
0.037500	16	-2.741672	-2.727625	0.250528
0.038500	18	-3.614283	-3.570441	0.400553
0.039500	17	-4.522624	-4.554040	0.525767
0.040500	15	-5.544630	-5.607088	0.560692
0.041500	15	-6.540857	-6.679076	0.623266
0.042500	15	-7.530603	-7.771264	0.659167
0.043500	15	-8.450567	-8.711936	0.700439
0.044500	15	-9.252178	-9.532652	0.700902
0.045500	15	-9.847389	-10.050340	0.678815
0.046500	21	-10.228852	-10.348324	0.626431
0.047500	18	-10.516114	-10.595800	0.557165
0.048500	15	-10.531743	-10.610952	0.540532
0.049500	15	-10.567097	-10.704388	0.528967
0.050500	15	-10.631661	-10.814240	0.545075
0.051500	15	-10.728632	-10.920300	0.566120
0.052500	15	-10.798078	-10.951868	0.554908
0.053500	15	-10.804558	-10.931664	0.520502
0.054500	16	-10.708729	-10.856538	0.496526
0.055500	18	-10.398127	-10.511834	0.411737
0.056500	17	-10.023822	-10.021296	0.372396
0.057500	15	-9.710855	-9.756140	0.381851
0.058500	15	-9.475750	-9.562956	0.386869
0.059500	15	-9.383494	-9.503612	0.426552
0.060500	15	-9.384083	-9.617252	0.488446
0.061500	15	-9.477518	-9.762456	0.536323
0.062500	15	-9.618849	-9.855892	0.574971
0.063500	21	-9.683450	-9.629876	0.604477
0.064500	18	-9.726260	-9.817380	0.570148
0.065500	15	-9.576678	-9.566744	0.533485
0.066500	15	-9.417669	-9.379872	0.517714
0.067500	15	-9.313879	-9.244772	0.481864
0.068500	15	-9.314889	-9.309164	0.478088
0.069500	15	-9.444605	-9.417752	0.525248
0.070500	15	-9.723229	-9.796548	0.573473
0.071500	16	-10.181417	-10.254256	0.669364
0.072500	18	-10.639503	-10.684188	0.773929
0.073500	17	-10.985959	-11.142528	0.831330
0.074500	15	-11.249010	-11.396320	0.867743
0.075500	15	-11.376621	-11.518796	0.890366
0.076500	15	-11.407093	-11.448088	0.895240
0.077500	15	-11.420814	-11.443036	0.865248
0.078500	15	-11.472246	-11.566776	0.851673
0.079500	15	-11.574267	-11.696828	0.881553
0.080500	21	-11.691417	-11.733444	0.943934
0.081500	18	-11.879772	-12.014384	1.025770
0.082500	15	-11.760297	-11.833192	1.026410
0.083500	15	-11.379062	-11.473340	1.022799
0.084500	15	-10.731746	-10.855908	0.999065
0.085500	15	-9.800924	-9.993520	0.933958
0.086500	15	-8.656462	-8.823048	0.831533
0.087500	15	-7.406527	-7.555352	0.727621
0.088500	16	-6.170544	-6.269346	0.605836
0.089500	18	-4.699878	-4.886118	0.516299
0.090500	17	-3.622507	-3.730797	0.444649
0.091500	15	-2.717650	-2.714367	0.333415
0.092500	15	-2.046512	-2.030014	0.273298
0.093500	15	-1.523188	-1.518642	0.186370
0.094500	15	-1.125370	-1.139848	0.131368
0.095500	15	-0.827807	-0.855753	0.105226
0.096500	15	-0.623426	-0.636053	0.078182
0.097500	21	-0.445453	-0.436555	0.061022
0.098500	18	-0.319971	-0.324179	0.042040
0.099500	15	-0.259195	-0.263572	0.020291
0.100500	15	-0.203050	-0.209279	0.030612
0.101500	15	-0.174682	-0.185288	0.028562
0.102500	15	-0.155069	-0.147409	0.020461
0.103500	15	-0.131752	-0.136045	0.028994
0.104500	15	-0.114159	-0.122156	0.033220
0.105500	16	-0.117263	-0.122156	0.020271
0.106500	18	-0.087503	-0.085539	0.029681
0.107500	17	-0.094898	-0.095640	0.022109
0.108500	15	-0.088738	-0.091853	0.029155
0.109500	15	-0.076785	-0.077963	0.028527
0.110500	15	-0.079815	-0.086802	0.027127
0.111500	15	-0.083519	-0.089327	0.024883
0.112500	15	-0.066936	-0.061549	0.025829
0.113500	15	-0.070388	-0.071650	0.031035
0.114500	21	-0.074055	-0.071650	0.026835
0.115500	18	-0.072492	-0.075438	0.027753
0.116500	15	-0.070219	-0.072913	0.032121
0.117500	15	-0.077795	-0.077963	0.026324
0.118500	15	-0.069546	-0.074175	0.028577
0.119500	15	-0.063653	-0.075438	0.037489
