x 19.375000
w 47.249102
wstd 0.008906
# theta(rad)	count	mean(uA)	median(uA)	std dev(uA)
0.000500	15	-0.091347	-0.100691	0.044748
0.001500	15	-0.103385	-0.120893	0.040064
0.002500	15	-0.097829	-0.103216	0.049254
0.003500	18	-0.094869	-0.107004	0.042719
0.004500	22	-0.092426	-0.083645	0.049033
0.005500	15	-0.097829	-0.095640	0.049997
0.006500	15	-0.109698	-0.110792	0.056108
0.007500	15	-0.111887	-0.101954	0.055930
0.008500	15	-0.100607	-0.095640	0.047548
0.009500	15	-0.107930	-0.098166	0.053658
0.010500	15	-0.103469	-0.101954	0.051500
0.011500	17	-0.112946	-0.113318	0.046481
0.012500	18	-0.114370	-0.112055	0.052278
0.013500	15	-0.121398	-0.129732	0.057583
0.014500	15	-0.113823	-0.128469	0.056042
0.015500	15	-0.114580	-0.117105	0.043559
0.016500	15	-0.127712	-0.136045	0.057230
0.017500	15	-0.129479	-0.109530	0.049204
0.018500	15	-0.119210	-0.139833	0.047248
0.019500	15	-0.142779	-0.143621	0.044368
0.020500	18	-0.154634	-0.157510	0.049248
0.021500	22	-0.147639	-0.146146	0.048830
0.022500	15	-0.174598	-0.170137	0.043500
0.023500	15	-0.205912	-0.208016	0.052217
0.024500	15	-0.201871	-0.191602	0.033836
0.025500	15	-0.244969	-0.249683	0.041076
0.026500	15	-0.278387	-0.279987	0.045163
0.027500	15	-0.304650	-0.307765	0.038264
0.028500	15	-0.347412	-0.338068	0.048084
0.029500	20	-0.444762	-0.435292	0.057194
0.030500	15	-0.516691	-0.502212	0.058861
0.031500	15	-0.648090	-0.652467	0.064771
0.032500	15	-0.798513	-0.790096	0.078254
0.033500	15	-0.978903	-0.993382	0.097147
0.034500	15	-1.235978	-1.219395	0.120276
0.035500	15	-1.557026	-1.528743	0.164553
0.036500	15	-1.987336	-1.969406	0.217281
0.037500	16	-2.556537	-2.507294	0.263306
0.038500	17	-3.288203	-3.240891	0.341715
0.039500	22	-4.378994	-4.268052	0.538041
0.040500	15	-5.516346	-5.522492	0.594454
0.041500	15	-6.511985	-6.542708	0.680520
0.042500	15	-7.546007	-7.557876	0.763518
0.043500	15	-8.510331	-8.392484	0.819512
0.044500	15	-9.325159	-9.035172	0.845353
0.045500	15	-9.964983	-9.864728	0.832251
0.046500	17	-10.429800	-10.503628	0.781236
0.047500	18	-10.581772	-10.874846	0.694032
0.048500	15	-10.657250	-10.862220	0.641143
0.049500	15	-10.675769	-10.848332	0.605166
0.050500	15	-10.712974	-10.913988	0.601897
0.051500	15	-10.789828	-10.985960	0.628718
0.052500	15	-10.880906	-11.028888	0.642883
0.053500	15	-10.911462	-11.094548	0.622560
0.054500	16	-10.787961	-10.759314	0.609559
0.055500	17	-10.649056	-10.863484	0.547865
0.056500	22	-10.235603	-10.318018	0.506380
0.057500	15	-9.821800	-9.975844	0.477601
0.058500	15	-9.544354	-9.704372	0.465531
0.059500	15	-9.403443	-9.594524	0.486411
0.060500	15	-9.398308	-9.550332	0.536478
0.061500	15	-9.497636	-9.599576	0.599104
0.062500	15	-9.635685	-9.684172	0.641675
0.063500	17	-9.771814	-9.785184	0.702213
0.064500	18	-9.786094	-9.715736	0.675523
0.065500	15	-9.691325	-9.645028	0.679053
0.066500	15	-9.543513	-9.466996	0.664854
0.067500	15	-9.420699	-9.353360	0.628264
0.068500	15	-9.360682	-9.341996	0.592601
0.069500	15	-9.426928	-9.460684	0.590985
0.070500	15	-9.650164	-9.782656	0.637390
0.071500	16	-9.971580	-10.060440	0.718496
0.072500	17	-10.482758	-10.609692	0.829487
0.073500	22	-11.029749	-11.193664	0.952673
0.074500	15	-11.288236	-11.376116	1.032614
0.075500	15	-11.406756	-11.461976	1.053180
0.076500	15	-11.444804	-11.497328	1.060645
0.077500	15	-11.457010	-11.570564	1.042958
0.078500	15	-11.470983	-11.594552	1.016816
0.079500	15	-11.576288	-11.720820	1.040080
0.080500	17	-11.732554	-11.965772	1.128989
0.081500	18	-11.863428	-11.890646	1.109286
0.082500	15	-11.797419	-12.103400	1.244249
0.083500	15	-11.506421	-11.982188	1.285894
0.084500	15	-10.906496	-11.482180	1.246346
0.085500	15	-10.039059	-10.440496	1.145003
0.086500	15	-8.938200	-9.206892	1.020348
0.087500	15	-7.690285	-7.814192	0.872778
0.088500	16	-6.334767	-6.340686	0.779391
0.089500	17	-5.071132	-5.158848	0.664886
0.090500	22	-3.710882	-3.574860	0.561378
0.091500	15	-2.651572	-2.679013	0.373818
0.092500	15	-2.007286	-2.002236	0.291926
0.093500	15	-1.482109	-1.474449	0.207683
0.094500	15	-1.080251	-1.070403	0.166648
0.095500	15	-0.795567	-0.783782	0.130270
0.096500	15	-0.592029	-0.586810	0.086558
0.097500	17	-0.439674	-0.442868	0.062657
0.098500	18	-0.315621	-0.315972	0.049458
0.099500	15	-0.245054	-0.257259	0.028543
0.100500	15	-0.202292	-0.206753	0.033291
0.101500	15	-0.158520	-0.158773	0.034898
0.102500	15	-0.126702	-0.128469	0.032627
0.103500	15	-0.129058	-0.137308	0.035309
0.104500	15	-0.100102	-0.109530	0.028785
0.105500	16	-0.087354	-0.079226	0.034001
0.106500	17	-0.092892	-0.089327	0.032749
0.107500	22	-0.068666	-0.066600	0.047502
0.108500	15	-0.058014	-0.048923	0.044851
0.109500	15	-0.060539	-0.050185	0.044341
0.110500	15	-0.065253	-0.062812	0.037545
0.111500	15	-0.061044	-0.055236	0.044712
0.112500	15	-0.053047	-0.041347	0.046938
0.113500	15	-0.058266	-0.060286	0.042624
0.114500	17	-0.052710	-0.035033	0.048772
0.115500	18	-0.047449	-0.036296	0.043132
0.116500	15	-0.054562	-0.042609	0.043211
0.117500	15	-0.047154	-0.035033	0.050030
0.118500	15	-0.044882	-0.037559	0.044976
0.119500	15	-0.046986	-0.052711	0.033298
