x 17.125000
w 47.360014
wstd 0.007495
# theta(rad)	count	mean(uA)	median(uA)	std dev(uA)
0.000500	18	-0.052359	-0.060286	0.051859
0.001500	17	-0.060657	-0.076701	0.043432
0.002500	15	-0.050437	-0.055236	0.039296
0.003500	15	-0.059864	-0.062812	0.057265
0.004500	15	-0.064158	-0.074175	0.042250
0.005500	15	-0.069545	-0.075438	0.049279
0.006500	15	-0.068956	-0.074175	0.044412
0.007500	15	-0.068114	-0.083014	0.052836
0.008500	15	-0.070303	-0.072913	0.044645
0.009500	15	-0.063232	-0.066600	0.047598
0.010500	21	-0.072312	-0.072913	0.045850
0.011500	19	-0.090789	-0.098166	0.046786
0.012500	15	-0.083856	-0.088065	0.050693
0.013500	15	-0.081078	-0.090590	0.040682
0.014500	15	-0.083435	-0.094378	0.046718
0.015500	15	-0.089243	-0.107004	0.053475
0.016500	15	-0.087307	-0.086802	0.044277
0.017500	15	-0.095220	-0.096903	0.049397
0.018500	18	-0.088556	-0.094378	0.051287
0.019500	17	-0.103588	-0.113318	0.040290
0.020500	15	-0.111213	-0.105742	0.046383
0.021500	15	-0.117274	-0.122156	0.054326
0.022500	15	-0.133183	-0.148672	0.039077
0.023500	15	-0.154396	-0.168874	0.047425
0.024500	15	-0.158015	-0.162561	0.045166
0.025500	15	-0.182342	-0.194127	0.050828
0.026500	15	-0.205575	-0.214329	0.044922
0.027500	15	-0.236299	-0.247158	0.043880
0.028500	21	-0.287442	-0.291351	0.046813
0.029500	19	-0.364584	-0.364584	0.051721
0.030500	15	-0.442615	-0.449181	0.067462
0.031500	15	-0.532937	-0.546405	0.067603
0.032500	15	-0.663831	-0.666356	0.085338
0.033500	15	-0.831005	-0.821662	0.095707
0.034500	15	-1.051042	-1.037574	0.122332
0.035500	15	-1.337579	-1.358286	0.156019
0.036500	18	-1.768295	-1.766121	0.221563
0.037500	17	-2.346121	-2.351988	0.260752
0.038500	15	-3.065299	-3.002251	0.307334
0.039500	15	-3.876170	-3.801505	0.373409
0.040500	15	-4.809434	-4.730812	0.429777
0.041500	15	-5.829314	-5.704312	0.523598
0.042500	15	-6.928742	-6.732104	0.599204
0.043500	15	-8.037681	-7.847020	0.657598
0.044500	15	-9.042495	-8.917744	0.705567
0.045500	15	-9.863046	-9.783920	0.716083
0.046500	21	-10.474286	-10.509940	0.628006
0.047500	19	-10.991275	-11.008688	0.585302
0.048500	15	-11.036380	-11.136212	0.531548
0.049500	15	-11.095893	-11.210708	0.528707
0.050500	15	-11.178722	-11.211972	0.556449
0.051500	15	-11.290256	-11.262476	0.604070
0.052500	15	-11.411218	-11.350864	0.629199
0.053500	15	-11.411303	-11.340764	0.599768
0.054500	18	-11.247677	-11.353388	0.538186
0.055500	17	-10.907526	-11.078132	0.444814
0.056500	15	-10.508847	-10.689236	0.402378
0.057500	15	-10.165071	-10.363476	0.379677
0.058500	15	-9.930640	-10.086956	0.392914
0.059500	15	-9.829964	-9.860940	0.439260
0.060500	15	-9.884595	-9.888720	0.522452
0.061500	15	-10.053537	-10.090744	0.607548
0.062500	15	-10.221974	-10.204380	0.666065
0.063500	15	-10.315326	-10.388728	0.668602
0.064500	21	-10.154296	-10.386200	0.642564
0.065500	19	-10.014585	-10.249836	0.590150
0.066500	15	-9.684929	-9.881144	0.537462
0.067500	15	-9.532654	-9.724576	0.519893
0.068500	15	-9.525246	-9.626088	0.509557
0.069500	15	-9.715148	-9.809172	0.559976
0.070500	15	-10.122057	-10.174076	0.651604
0.071500	15	-10.641762	-10.734692	0.750249
0.072500	18	-11.226142	-11.408946	0.919636
0.073500	17	-11.613791	-11.912740	0.916918
0.074500	15	-11.754573	-12.165268	0.946596
0.075500	15	-11.748934	-12.214512	0.940511
0.076500	15	-11.689505	-12.162744	0.924149
0.077500	15	-11.670649	-12.113500	0.892471
0.078500	15	-11.730919	-12.203148	0.888565
0.079500	15	-11.896747	-12.311736	0.925822
0.080500	15	-12.100959	-12.503660	0.979608
0.081500	21	-12.167314	-12.102136	1.054497
0.082500	15	-12.131010	-12.518812	1.128749
0.083500	19	-11.718493	-12.018804	1.106834
0.084500	15	-10.780568	-10.884948	1.091677
0.085500	15	-9.705300	-9.592000	1.038457
0.086500	15	-8.460331	-8.249804	0.946808
0.087500	15	-7.112331	-6.932868	0.841839
0.088500	15	-5.796738	-5.699260	0.721469
0.089500	15	-4.602696	-4.494696	0.594037
0.090500	18	-3.479040	-3.400615	0.488675
0.091500	17	-2.520811	-2.458050	0.369395
0.092500	15	-1.813091	-1.786323	0.193391
0.093500	15	-1.330760	-1.317881	0.147532
0.094500	15	-0.974105	-0.964341	0.113823
0.095500	15	-0.707771	-0.711812	0.089121
0.096500	15	-0.518290	-0.506000	0.061020
0.097500	15	-0.401874	-0.413827	0.054418
0.098500	15	-0.315593	-0.315341	0.044185
0.099500	21	-0.231405	-0.229481	0.038975
0.100500	15	-0.184531	-0.180238	0.050023
0.101500	19	-0.158308	-0.153722	0.031959
0.102500	15	-0.129816	-0.130995	0.033510
0.103500	15	-0.113654	-0.107004	0.028813
0.104500	15	-0.098334	-0.101954	0.027686
0.105500	15	-0.091179	-0.091853	0.023130
0.106500	15	-0.083603	-0.095640	0.034375
0.107500	15	-0.085034	-0.091853	0.026275
0.108500	18	-0.068564	-0.070388	0.032272
0.109500	17	-0.076478	-0.075438	0.034965
0.110500	15	-0.070556	-0.064074	0.035275
0.111500	15	-0.061886	-0.072913	0.031075
0.112500	15	-0.061465	-0.069125	0.031617
0.113500	15	-0.066515	-0.069125	0.030515
0.114500	15	-0.064411	-0.067862	0.035305
0.115500	15	-0.055572	-0.051448	0.032908
0.116500	15	-0.064916	-0.074175	0.031354
0.117500	21	-0.053612	-0.056498	0.037360
0.118500	15	-0.053047	-0.060286	0.025589
0.119500	19	-0.067663	-0.072913	0.027552
