x 16.875000
w 47.336724
wstd 0.006492
# theta(rad)	count	mean(uA)	median(uA)	std dev(uA)
0.000500	21	-0.071951	-0.072913	0.042907
0.001500	15	-0.074681	-0.088065	0.038225
0.002500	15	-0.069462	-0.070388	0.037647
0.003500	15	-0.071650	-0.074175	0.041702
0.004500	15	-0.070388	-0.077963	0.035420
0.005500	15	-0.077795	-0.065337	0.030763
0.006500	15	-0.082930	-0.084277	0.037161
0.007500	15	-0.078637	-0.093115	0.034658
0.008500	18	-0.081541	-0.088065	0.031152
0.009500	21	-0.076881	-0.077963	0.036523
0.010500	15	-0.078889	-0.074175	0.031029
0.011500	15	-0.086297	-0.086802	0.030634
0.012500	15	-0.091347	-0.105742	0.040304
0.013500	15	-0.091263	-0.104479	0.029868
0.014500	15	-0.091937	-0.093115	0.030013
0.015500	15	-0.099933	-0.096903	0.042120
0.016500	15	-0.094378	-0.096903	0.034376
0.017500	20	-0.094441	-0.085539	0.034988
0.018500	16	-0.116711	-0.124681	0.031807
0.019500	15	-0.122745	-0.132257	0.029532
0.020500	15	-0.115927	-0.125944	0.036573
0.021500	15	-0.128638	-0.119631	0.041031
0.022500	15	-0.145136	-0.138570	0.028597
0.023500	15	-0.150523	-0.148672	0.035543
0.024500	15	-0.168116	-0.158773	0.040535
0.025500	15	-0.193874	-0.205491	0.035942
0.026500	18	-0.213417	-0.234531	0.043234
0.027500	21	-0.264655	-0.264835	0.040712
0.028500	15	-0.321570	-0.320391	0.049662
0.029500	15	-0.370645	-0.383524	0.051075
0.030500	15	-0.449602	-0.456757	0.063199
0.031500	15	-0.558695	-0.560294	0.073605
0.032500	15	-0.676710	-0.670144	0.091453
0.033500	15	-0.840854	-0.850702	0.119466
0.034500	15	-1.061228	-1.067878	0.150159
0.035500	20	-1.401658	-1.428994	0.185450
0.036500	16	-1.899566	-1.943522	0.182308
0.037500	15	-2.487849	-2.517395	0.219864
0.038500	15	-3.178516	-3.195435	0.274182
0.039500	15	-3.998983	-4.032568	0.326925
0.040500	15	-4.961877	-5.013644	0.399331
0.041500	15	-6.028055	-6.124772	0.478359
0.042500	15	-7.146169	-7.138676	0.556147
0.043500	15	-8.262179	-8.113440	0.633201
0.044500	18	-9.437114	-9.230250	0.790496
0.045500	21	-10.456790	-10.133672	0.836989
0.046500	15	-10.890250	-10.657672	0.753900
0.047500	15	-11.112644	-10.901360	0.668783
0.048500	15	-11.191686	-11.004900	0.627261
0.049500	15	-11.269633	-11.126112	0.621100
0.050500	15	-11.391520	-11.295308	0.656664
0.051500	15	-11.505832	-11.516268	0.688264
0.052500	15	-11.598342	-11.704404	0.680130
0.053500	20	-11.430852	-11.307302	0.653264
0.054500	16	-11.310617	-11.369172	0.586693
0.055500	15	-10.934864	-10.921564	0.560130
0.056500	15	-10.562047	-10.566760	0.516439
0.057500	15	-10.220206	-10.200592	0.466152
0.058500	15	-9.990741	-10.062964	0.449307
0.059500	15	-9.925673	-10.078116	0.462938
0.060500	15	-10.035523	-10.129884	0.524889
0.061500	18	-10.300904	-10.342640	0.692910
0.062500	21	-10.575117	-10.570548	0.687893
0.063500	15	-10.426775	-10.552872	0.706518
0.064500	15	-10.227950	-10.430396	0.672602
0.065500	15	-9.971549	-10.198068	0.648768
0.066500	15	-9.718935	-9.884932	0.628761
0.067500	15	-9.587957	-9.734676	0.606949
0.068500	15	-9.640484	-9.763716	0.610180
0.069500	15	-9.885437	-9.903872	0.686973
0.070500	15	-10.353710	-10.218272	0.828125
0.071500	20	-10.841954	-10.722066	0.916819
0.072500	16	-11.670786	-11.701248	1.023783
0.073500	15	-11.928061	-12.052896	1.116557
0.074500	15	-11.992287	-12.097088	1.119650
0.075500	15	-11.934794	-12.023852	1.097575
0.076500	15	-11.831931	-11.978400	1.064285
0.077500	15	-11.797839	-11.956932	1.022629
0.078500	15	-11.892117	-12.079408	1.018261
0.079500	18	-12.083549	-12.210094	1.102288
0.080500	21	-12.576832	-12.561740	1.192932
0.081500	15	-12.484382	-12.698104	1.256936
0.082500	15	-12.240944	-12.624872	1.260044
0.083500	15	-11.701542	-12.199360	1.211722
0.084500	15	-10.850182	-11.247324	1.136503
0.085500	15	-9.726090	-10.002356	1.042062
0.086500	15	-8.417822	-8.432888	0.957236
0.087500	15	-7.058541	-6.881096	0.852297
0.088500	20	-5.500332	-5.431582	0.882451
0.089500	15	-4.178952	-4.309088	0.624678
0.090500	16	-3.200959	-3.258568	0.475497
0.091500	15	-2.355608	-2.436586	0.341677
0.092500	15	-1.735649	-1.821677	0.251926
0.093500	15	-1.275625	-1.305255	0.181908
0.094500	15	-0.932354	-0.974442	0.143491
0.095500	15	-0.684286	-0.694134	0.088958
0.096500	15	-0.514839	-0.527465	0.061272
0.097500	18	-0.373563	-0.379104	0.064653
0.098500	21	-0.284376	-0.278724	0.045383
0.099500	15	-0.221653	-0.220642	0.028988
0.100500	15	-0.189329	-0.182763	0.028291
0.101500	15	-0.152628	-0.148672	0.026332
0.102500	15	-0.134530	-0.120893	0.031111
0.103500	15	-0.124513	-0.122156	0.024111
0.104500	15	-0.104732	-0.096903	0.029193
0.105500	15	-0.097913	-0.095640	0.029244
0.106500	20	-0.094378	-0.096903	0.026158
0.107500	15	-0.077963	-0.081751	0.028589
0.108500	16	-0.072360	-0.067862	0.028616
0.109500	15	-0.079984	-0.070388	0.031409
0.110500	15	-0.070556	-0.062812	0.022383
0.111500	15	-0.069209	-0.066600	0.027325
0.112500	15	-0.076027	-0.074175	0.026705
0.113500	15	-0.074933	-0.080489	0.024439
0.114500	18	-0.065477	-0.067231	0.022852
0.115500	15	-0.058350	-0.061549	0.035445
0.116500	21	-0.068283	-0.067862	0.030712
0.117500	15	-0.068704	-0.070388	0.029100
0.118500	15	-0.069967	-0.069125	0.034089
0.119500	15	-0.066095	-0.079226	0.036516
