x 16.375000
w 47.175617
wstd 0.011858
# theta(rad)	count	mean(uA)	median(uA)	std dev(uA)
0.000500	16	-0.007885	-0.009781	0.028771
0.001500	16	-0.004807	-0.012937	0.023261
0.002500	15	-0.009695	-0.011043	0.021372
0.003500	15	-0.012052	-0.002205	0.025693
0.004500	15	-0.016683	-0.016094	0.022083
0.005500	15	-0.006328	-0.003467	0.029979
0.006500	15	-0.006328	-0.000942	0.021337
0.007500	17	-0.021441	-0.028720	0.027625
0.008500	16	-0.014909	-0.012306	0.025200
0.009500	17	-0.020995	-0.021144	0.027078
0.010500	15	-0.023332	-0.024932	0.028884
0.011500	15	-0.018113	-0.022407	0.028092
0.012500	15	-0.025353	-0.016094	0.031742
0.013500	15	-0.023922	-0.027458	0.018639
0.014500	15	-0.032171	-0.027458	0.025276
0.015500	17	-0.027680	-0.031246	0.023126
0.016500	21	-0.042669	-0.050185	0.026332
0.017500	16	-0.033928	-0.030614	0.026304
0.018500	16	-0.050422	-0.055867	0.029894
0.019500	15	-0.058771	-0.065337	0.034678
0.020500	15	-0.053131	-0.055236	0.022373
0.021500	15	-0.065084	-0.067862	0.030005
0.022500	15	-0.090927	-0.089327	0.033598
0.023500	15	-0.089748	-0.086802	0.025723
0.024500	17	-0.102251	-0.090590	0.032767
0.025500	16	-0.133283	-0.133520	0.030712
0.026500	17	-0.167611	-0.170137	0.027551
0.027500	15	-0.198588	-0.196652	0.033767
0.028500	15	-0.237899	-0.249683	0.044961
0.029500	15	-0.301873	-0.307765	0.044612
0.030500	15	-0.370308	-0.374685	0.045707
0.031500	15	-0.456252	-0.456757	0.061462
0.032500	17	-0.588369	-0.566607	0.101520
0.033500	21	-0.797431	-0.776206	0.131491
0.034500	16	-1.094235	-1.028735	0.191971
0.035500	16	-1.417157	-1.388589	0.238594
0.036500	15	-1.865533	-1.783798	0.305144
0.037500	15	-2.432629	-2.315372	0.395164
0.038500	15	-3.113868	-2.982048	0.512266
0.039500	15	-3.966660	-3.898729	0.597445
0.040500	15	-4.939570	-4.873492	0.714183
0.041500	17	-6.034309	-6.045228	0.781460
0.042500	16	-7.333047	-7.420248	0.802311
0.043500	17	-8.589309	-8.615972	0.888166
0.044500	15	-9.645786	-9.490984	0.930032
0.045500	15	-10.408088	-10.362212	0.907847
0.046500	15	-10.912894	-10.953128	0.847579
0.047500	15	-11.184783	-11.310460	0.797153
0.048500	15	-11.305576	-11.369804	0.729712
0.049500	17	-11.394611	-11.371064	0.732243
0.050500	21	-11.593592	-11.511220	0.687427
0.051500	16	-11.841007	-11.881174	0.863868
0.052500	16	-11.733050	-11.711980	0.844294
0.053500	15	-11.703394	-11.647584	0.733634
0.054500	15	-11.405830	-11.461976	0.619219
0.055500	15	-11.021313	-11.079396	0.523425
0.056500	15	-10.640078	-10.669036	0.459583
0.057500	17	-10.256372	-10.391252	0.431179
0.058500	16	-10.077249	-10.110946	0.437233
0.059500	17	-10.140209	-10.076852	0.574272
0.060500	15	-10.358425	-10.355900	0.726617
0.061500	15	-10.612721	-10.551608	0.846573
0.062500	15	-10.772992	-10.747320	0.911635
0.063500	15	-10.739322	-10.913988	0.881892
0.064500	15	-10.525430	-10.706912	0.809009
0.065500	17	-10.152761	-10.340748	0.730675
0.066500	21	-9.929546	-10.056652	0.620732
0.067500	16	-9.738070	-9.809804	0.634323
0.068500	16	-9.767269	-9.739726	0.731059
0.069500	15	-10.235947	-10.040236	0.865177
0.070500	15	-10.873836	-10.593276	1.068809
0.071500	15	-11.567786	-11.195556	1.241243
0.072500	15	-12.096329	-12.009964	1.283778
0.073500	15	-12.342377	-12.522600	1.233908
0.074500	17	-12.248010	-12.595832	1.133228
0.075500	16	-12.117368	-12.337622	1.049861
0.076500	17	-11.996670	-12.228404	1.038611
0.077500	15	-12.037574	-12.174108	1.038180
0.078500	15	-12.190859	-12.310472	1.064092
0.079500	15	-12.440358	-12.565528	1.150513
0.080500	15	-12.712668	-12.818056	1.236661
0.081500	15	-12.842299	-13.032708	1.304678
0.082500	17	-12.616183	-12.996092	1.368668
0.083500	21	-12.130697	-12.373604	1.165718
0.084500	16	-10.902151	-10.947448	1.068174
0.085500	16	-9.364327	-9.342626	0.948151
0.086500	15	-8.044247	-8.002328	0.853363
0.087500	15	-6.626885	-6.685388	0.748140
0.088500	15	-5.308767	-5.365924	0.641397
0.089500	15	-4.135096	-4.161360	0.528539
0.090500	15	-3.134323	-3.095686	0.413174
0.091500	17	-2.315446	-2.345675	0.342830
0.092500	16	-1.615077	-1.590613	0.236453
0.093500	17	-1.124548	-1.128485	0.182917
0.094500	15	-0.809456	-0.822924	0.137852
0.095500	15	-0.595143	-0.576708	0.107056
0.096500	15	-0.419720	-0.426454	0.060897
0.097500	15	-0.319886	-0.324179	0.038245
0.098500	17	-0.228664	-0.229481	0.052220
0.099500	15	-0.179817	-0.177712	0.041170
0.100500	21	-0.137969	-0.143621	0.033770
0.101500	16	-0.119867	-0.116474	0.032383
0.102500	16	-0.088459	-0.078595	0.030597
0.103500	15	-0.069883	-0.069125	0.022297
0.104500	15	-0.074849	-0.075438	0.027443
0.105500	15	-0.057845	-0.042609	0.030002
0.106500	15	-0.048502	-0.045135	0.020243
0.107500	17	-0.053305	-0.037559	0.036392
0.108500	15	-0.040673	-0.043872	0.022605
0.109500	16	-0.038426	-0.039453	0.031009
0.110500	17	-0.046100	-0.043872	0.034276
0.111500	15	-0.038821	-0.035033	0.026454
0.112500	15	-0.038232	-0.042609	0.025253
0.113500	15	-0.033350	-0.033771	0.030405
0.114500	15	-0.038990	-0.036296	0.029042
0.115500	17	-0.029537	-0.037559	0.024024
0.116500	21	-0.029682	-0.026195	0.024795
0.117500	15	-0.045556	-0.037559	0.027279
0.118500	16	-0.027378	-0.020513	0.029812
0.119500	16	-0.036454	-0.031246	0.025169
