x 16.125000
w 47.202452
wstd 0.013854
# theta(rad)	count	mean(uA)	median(uA)	std dev(uA)
0.000500	17	-0.033399	-0.024932	0.027852
0.001500	17	-0.044912	-0.046397	0.028535
0.002500	17	-0.045803	-0.040084	0.028489
0.003500	15	-0.041936	-0.046397	0.025290
0.004500	15	-0.041094	-0.031246	0.033937
0.005500	15	-0.035539	-0.038821	0.019429
0.006500	15	-0.038653	-0.038821	0.024076
0.007500	15	-0.048502	-0.046397	0.034483
0.008500	16	-0.043241	-0.040715	0.023495
0.009500	17	-0.035776	-0.024932	0.030935
0.010500	17	-0.056350	-0.050185	0.027073
0.011500	19	-0.047793	-0.052711	0.031233
0.012500	15	-0.046734	-0.036296	0.030396
0.013500	15	-0.053720	-0.055236	0.037791
0.014500	15	-0.059360	-0.059024	0.024689
0.015500	15	-0.048586	-0.038821	0.033630
0.016500	15	-0.064832	-0.057761	0.029632
0.017500	17	-0.063480	-0.053973	0.025855
0.018500	17	-0.063554	-0.065337	0.025545
0.019500	17	-0.072839	-0.064074	0.028122
0.020500	15	-0.075859	-0.069125	0.022339
0.021500	15	-0.082088	-0.075438	0.026763
0.022500	15	-0.093957	-0.086802	0.029264
0.023500	15	-0.096819	-0.099428	0.023745
0.024500	15	-0.113486	-0.115843	0.017646
0.025500	16	-0.136676	-0.132257	0.032835
0.026500	17	-0.167537	-0.170137	0.028155
0.027500	17	-0.194572	-0.189076	0.018034
0.028500	19	-0.247690	-0.248421	0.030785
0.029500	15	-0.302462	-0.311553	0.036119
0.030500	15	-0.374517	-0.373423	0.037325
0.031500	15	-0.457094	-0.449181	0.053652
0.032500	15	-0.578308	-0.576708	0.065415
0.033500	15	-0.728478	-0.744640	0.084100
0.034500	17	-0.943767	-0.931512	0.102906
0.035500	17	-1.244574	-1.272426	0.128395
0.036500	17	-1.675656	-1.675210	0.158514
0.037500	15	-2.228417	-2.226986	0.161829
0.038500	15	-2.881963	-2.867148	0.203677
0.039500	15	-3.683406	-3.684079	0.265137
0.040500	15	-4.636282	-4.620964	0.341976
0.041500	15	-5.719127	-5.795224	0.420854
0.042500	16	-6.893409	-6.916452	0.507709
0.043500	17	-8.381716	-8.376072	0.800189
0.044500	17	-9.553896	-9.407652	0.936376
0.045500	19	-10.563571	-10.242260	1.012790
0.046500	15	-11.192359	-11.021312	0.997343
0.047500	15	-11.438154	-11.243536	0.919100
0.048500	15	-11.531758	-11.321824	0.817237
0.049500	15	-11.584789	-11.472076	0.760304
0.050500	15	-11.689000	-11.604656	0.767024
0.051500	17	-11.860675	-11.770060	0.767554
0.052500	17	-11.994144	-11.994812	0.785598
0.053500	17	-11.866840	-11.959460	0.855009
0.054500	15	-11.667366	-11.669052	0.764643
0.055500	15	-11.265845	-11.203132	0.681172
0.056500	15	-10.847236	-10.770048	0.612691
0.057500	15	-10.471051	-10.427868	0.541542
0.058500	16	-10.139513	-10.263726	0.543771
0.059500	17	-10.202970	-10.296556	0.521681
0.060500	15	-10.328626	-10.520044	0.630482
0.061500	17	-10.663241	-10.815500	0.738081
0.062500	19	-10.899501	-10.941764	0.863799
0.063500	15	-10.829643	-10.847068	0.851163
0.064500	15	-10.568865	-10.526356	0.790072
0.065500	15	-10.214482	-10.157664	0.731506
0.066500	15	-9.890739	-9.898820	0.671243
0.067500	17	-9.674590	-9.804120	0.617838
0.068500	17	-9.686845	-9.656392	0.582204
0.069500	15	-10.039058	-10.138724	0.642322
0.070500	17	-10.628778	-10.638732	0.764349
0.071500	15	-11.435377	-11.463240	0.957801
0.072500	15	-12.076885	-12.022592	1.140870
0.073500	15	-12.391452	-12.408960	1.226721
0.074500	15	-12.355003	-12.499872	1.196694
0.075500	16	-12.052657	-12.110344	1.176184
0.076500	17	-12.111867	-12.489768	1.060309
0.077500	17	-11.971713	-12.165268	0.984971
0.078500	15	-12.060301	-12.368556	1.065423
0.079500	19	-12.368822	-12.655176	1.203997
0.080500	15	-12.691625	-12.862252	1.260470
0.081500	15	-12.792973	-12.929172	1.330423
0.082500	15	-12.602902	-12.705680	1.323366
0.083500	15	-12.092121	-12.220828	1.289299
0.084500	17	-11.142601	-11.291520	1.264712
0.085500	17	-9.863689	-9.940488	1.133997
0.086500	17	-8.457399	-8.588196	1.043953
0.087500	15	-6.862916	-6.681600	0.783146
0.088500	15	-5.505740	-5.354560	0.614378
0.089500	15	-4.301429	-4.216916	0.496624
0.090500	15	-3.268921	-3.210587	0.383568
0.091500	15	-2.426568	-2.426484	0.277291
0.092500	16	-1.736922	-1.701094	0.252942
0.093500	17	-1.240414	-1.215607	0.198676
0.094500	17	-0.838522	-0.800197	0.131583
0.095500	15	-0.583695	-0.581759	0.102222
0.096500	19	-0.406584	-0.382261	0.073941
0.097500	15	-0.279145	-0.274936	0.043649
0.098500	15	-0.216939	-0.215592	0.029241
0.099500	15	-0.154564	-0.152460	0.029843
0.100500	15	-0.117274	-0.114580	0.029694
0.101500	17	-0.096977	-0.099428	0.027186
0.102500	17	-0.062737	-0.057761	0.029642
0.103500	17	-0.056350	-0.046397	0.032004
0.104500	15	-0.043872	-0.042609	0.026518
0.105500	15	-0.032424	-0.027458	0.025722
0.106500	15	-0.027036	-0.035033	0.028373
0.107500	15	-0.018618	-0.016094	0.026909
0.108500	15	-0.019629	-0.018619	0.030023
0.109500	16	-0.002518	-0.001573	0.034448
0.110500	17	-0.008517	-0.003467	0.021054
0.111500	17	-0.008443	-0.007255	0.024682
0.112500	15	-0.006075	-0.008518	0.029146
0.113500	19	-0.003797	-0.009781	0.030106
0.114500	15	0.001248	-0.002205	0.021477
0.115500	15	0.002680	0.000321	0.030721
0.116500	15	0.006805	0.004109	0.023394
0.117500	15	-0.000604	-0.009781	0.021855
0.118500	17	0.008568	0.001584	0.027220
0.119500	17	0.008716	0.009161	0.020599
