x 15.875000
w 47.291277
wstd 0.021601
# theta(rad)	count	mean(uA)	median(uA)	std dev(uA)
0.000500	15	-0.043872	-0.043872	0.033837
0.001500	15	-0.049259	-0.037559	0.039513
0.002500	15	-0.049005	-0.069125	0.050488
0.003500	15	-0.051447	-0.064074	0.042386
0.004500	18	-0.062531	-0.078595	0.044399
0.005500	17	-0.056201	-0.062812	0.042893
0.006500	16	-0.057998	-0.076069	0.035188
0.007500	19	-0.048856	-0.048923	0.044144
0.008500	15	-0.055235	-0.062812	0.048521
0.009500	15	-0.050184	-0.061549	0.044791
0.010500	15	-0.064158	-0.067862	0.052627
0.011500	15	-0.061969	-0.071650	0.049206
0.012500	15	-0.058855	-0.070388	0.041388
0.013500	15	-0.061549	-0.053973	0.043361
0.014500	16	-0.073307	-0.089327	0.045820
0.015500	16	-0.077569	-0.093115	0.047485
0.016500	16	-0.072439	-0.093115	0.047981
0.017500	17	-0.063406	-0.084277	0.047879
0.018500	15	-0.083435	-0.090590	0.036006
0.019500	15	-0.088317	-0.098166	0.038129
0.020500	15	-0.095388	-0.096903	0.038871
0.021500	18	-0.105251	-0.108267	0.039149
0.022500	17	-0.115249	-0.122156	0.041599
0.023500	16	-0.133046	-0.141727	0.034423
0.024500	17	-0.143918	-0.153722	0.039398
0.025500	17	-0.166497	-0.168874	0.043459
0.026500	15	-0.193033	-0.194127	0.036757
0.027500	15	-0.223589	-0.229481	0.038208
0.028500	15	-0.275020	-0.281249	0.041693
0.029500	15	-0.326873	-0.330493	0.042756
0.030500	15	-0.382429	-0.387312	0.048821
0.031500	16	-0.470252	-0.473171	0.051055
0.032500	16	-0.613246	-0.619007	0.071021
0.033500	16	-0.764211	-0.752847	0.089137
0.034500	17	-0.990856	-0.980755	0.123405
0.035500	15	-1.305928	-1.263588	0.134346
0.036500	15	-1.682281	-1.671422	0.194771
0.037500	15	-2.175218	-2.148702	0.251887
0.038500	15	-2.819167	-2.816642	0.319629
0.039500	18	-3.751911	-3.718802	0.532633
0.040500	17	-4.781764	-4.791420	0.608140
0.041500	16	-6.017764	-6.007978	0.645919
0.042500	17	-7.273855	-7.275044	0.793849
0.043500	17	-8.658754	-8.788956	0.792107
0.044500	15	-9.724576	-9.852104	0.879363
0.045500	15	-10.524251	-10.605904	0.883864
0.046500	15	-11.065843	-11.123588	0.847531
0.047500	15	-11.344971	-11.300356	0.779719
0.048500	15	-11.460124	-11.443036	0.726596
0.049500	16	-11.539471	-11.521952	0.677616
0.050500	16	-11.769352	-11.758698	0.736231
0.051500	16	-11.904218	-11.816148	0.774319
0.052500	17	-11.950619	-11.968296	0.838791
0.053500	15	-11.927640	-11.890012	0.774829
0.054500	15	-11.641861	-11.638748	0.711920
0.055500	15	-11.250440	-11.302884	0.655760
0.056500	18	-10.783304	-10.862220	0.575856
0.057500	17	-10.462109	-10.496052	0.554106
0.058500	16	-10.170132	-10.244156	0.484958
0.059500	17	-10.201336	-10.249836	0.631779
0.060500	17	-10.534822	-10.530144	0.726435
0.061500	15	-10.812555	-10.811712	0.873892
0.062500	15	-10.947742	-10.950604	0.884483
0.063500	15	-10.837134	-10.868532	0.838958
0.064500	15	-10.516086	-10.655144	0.755935
0.065500	15	-10.147141	-10.176604	0.671361
0.066500	16	-9.788655	-9.857152	0.635649
0.067500	16	-9.660496	-9.813590	0.603327
0.068500	16	-9.729389	-9.955640	0.596339
0.069500	15	-10.161283	-10.517516	0.688333
0.070500	17	-10.869126	-11.126112	0.929837
0.071500	15	-11.718209	-11.970824	1.103840
0.072500	15	-12.369650	-12.648864	1.221350
0.073500	18	-12.699157	-13.220210	1.229274
0.074500	17	-12.580012	-12.931696	1.215834
0.075500	16	-12.357112	-12.609720	1.083253
0.076500	15	-12.245574	-12.609720	1.087884
0.077500	17	-12.266578	-12.593308	1.095528
0.078500	17	-12.595609	-12.982200	1.078355
0.079500	15	-12.931106	-13.422864	1.228479
0.080500	15	-13.238686	-13.772616	1.303410
0.081500	15	-13.319496	-13.749888	1.355985
0.082500	15	-13.096345	-13.323116	1.360367
0.083500	16	-12.421113	-12.472092	1.309367
0.084500	15	-11.516186	-11.429148	1.265134
0.085500	16	-10.242813	-10.043394	1.114088
0.086500	16	-8.563415	-8.311676	1.122201
0.087500	17	-6.985749	-6.860896	0.987030
0.088500	15	-5.534529	-5.537644	0.856065
0.089500	15	-4.317676	-4.396212	0.702121
0.090500	18	-3.159660	-3.136091	0.586512
0.091500	17	-2.301557	-2.235825	0.448266
0.092500	15	-1.620916	-1.617128	0.249886
0.093500	16	-1.153895	-1.155000	0.174507
0.094500	17	-0.819879	-0.796409	0.111397
0.095500	17	-0.582947	-0.567870	0.078868
0.096500	15	-0.427632	-0.423928	0.053685
0.097500	15	-0.332934	-0.319129	0.044113
0.098500	15	-0.266350	-0.276199	0.044460
0.099500	15	-0.206837	-0.199177	0.034596
0.100500	15	-0.181753	-0.173924	0.036569
0.101500	16	-0.160746	-0.158141	0.040055
0.102500	16	-0.124366	-0.134782	0.041378
0.103500	16	-0.123024	-0.122787	0.043574
0.104500	15	-0.108940	-0.100691	0.048876
0.105500	17	-0.091630	-0.083014	0.041694
0.106500	15	-0.088822	-0.079226	0.033527
0.107500	18	-0.092133	-0.096903	0.032442
0.108500	15	-0.083687	-0.079226	0.041075
0.109500	17	-0.085316	-0.088065	0.035566
0.110500	16	-0.085697	-0.093115	0.032868
0.111500	15	-0.073081	-0.053973	0.038974
0.112500	17	-0.074398	-0.072913	0.038282
0.113500	17	-0.073061	-0.070388	0.043782
0.114500	15	-0.077206	-0.080489	0.036232
0.115500	15	-0.066262	-0.075438	0.050081
0.116500	15	-0.072408	-0.065337	0.037617
0.117500	15	-0.074428	-0.066600	0.044986
0.118500	16	-0.060996	-0.065968	0.034668
0.119500	15	-0.070471	-0.075438	0.045030
