x 15.375000
w 47.403912
wstd 0.004213
# theta(rad)	count	mean(uA)	median(uA)	std dev(uA)
0.000500	15	-0.030908	-0.024932	0.036428
0.001500	15	-0.054394	-0.057761	0.037526
0.002500	15	-0.040757	-0.029983	0.041341
0.003500	15	-0.045555	-0.045135	0.037478
0.004500	23	-0.042884	-0.024932	0.041106
0.005500	15	-0.045219	-0.038821	0.042643
0.006500	15	-0.046902	-0.041347	0.041754
0.007500	15	-0.050353	-0.037559	0.039481
0.008500	15	-0.052458	-0.038821	0.041251
0.009500	15	-0.050185	-0.047660	0.041233
0.010500	15	-0.051953	-0.050185	0.044486
0.011500	15	-0.053384	-0.057761	0.048815
0.012500	21	-0.061008	-0.059024	0.039187
0.013500	16	-0.064232	-0.050185	0.041485
0.014500	15	-0.050268	-0.041347	0.053117
0.015500	15	-0.059276	-0.050185	0.036333
0.016500	15	-0.079731	-0.072913	0.044128
0.017500	15	-0.071482	-0.060286	0.035333
0.018500	15	-0.073081	-0.062812	0.040188
0.019500	15	-0.082593	-0.080489	0.039294
0.020500	15	-0.092694	-0.088065	0.037724
0.021500	15	-0.093536	-0.098166	0.036076
0.022500	23	-0.108432	-0.110792	0.038589
0.023500	15	-0.119042	-0.112055	0.038895
0.024500	15	-0.136719	-0.120893	0.052818
0.025500	15	-0.172999	-0.175187	0.040741
0.026500	15	-0.182258	-0.176450	0.038091
0.027500	15	-0.215592	-0.200440	0.054667
0.028500	15	-0.261384	-0.263572	0.051865
0.029500	15	-0.311805	-0.301452	0.044221
0.030500	15	-0.364584	-0.359533	0.057384
0.031500	21	-0.491630	-0.474434	0.083149
0.032500	16	-0.640946	-0.632896	0.093872
0.033500	15	-0.809456	-0.803985	0.127926
0.034500	15	-1.016025	-1.016109	0.161085
0.035500	15	-1.327057	-1.345660	0.199327
0.036500	15	-1.718056	-1.655008	0.270480
0.037500	15	-2.227491	-2.179006	0.351680
0.038500	15	-2.905279	-2.870936	0.449680
0.039500	15	-3.729619	-3.662614	0.569553
0.040500	23	-4.886008	-5.065412	0.643340
0.041500	15	-6.440182	-6.341948	0.506551
0.042500	15	-7.702912	-7.663940	0.597479
0.043500	15	-8.941651	-8.920272	0.704723
0.044500	15	-10.042089	-9.951852	0.820817
0.045500	15	-10.890166	-10.796564	0.903129
0.046500	15	-11.419299	-11.460712	0.919200
0.047500	15	-11.657266	-11.608444	0.885829
0.048500	15	-11.707266	-11.680416	0.814782
0.049500	21	-11.912981	-11.922844	0.766009
0.050500	16	-12.047923	-12.176634	0.842913
0.051500	15	-12.202139	-12.367292	0.938578
0.052500	15	-12.228150	-12.559216	0.928798
0.053500	15	-12.015857	-12.246080	0.809101
0.054500	15	-11.561557	-11.791528	0.671596
0.055500	15	-11.016599	-11.148840	0.549232
0.056500	15	-10.463812	-10.538984	0.445402
0.057500	15	-10.012796	-10.071804	0.382737
0.058500	15	-9.734509	-9.843264	0.398277
0.059500	23	-9.634050	-9.771292	0.519232
0.060500	15	-10.074665	-10.320544	0.672718
0.061500	15	-10.474839	-10.748580	0.844606
0.062500	15	-10.662385	-10.816764	0.946216
0.063500	15	-10.509941	-10.655144	0.949258
0.064500	15	-10.141333	-10.299080	0.856080
0.065500	15	-9.711950	-9.810436	0.746280
0.066500	15	-9.354284	-9.347044	0.659830
0.067500	21	-9.288722	-9.425328	0.576361
0.068500	16	-9.522158	-9.581898	0.633026
0.069500	15	-10.081736	-10.057912	0.837048
0.070500	15	-10.971649	-10.968280	1.097384
0.071500	15	-11.952725	-12.220828	1.323158
0.072500	15	-12.619991	-13.234732	1.451643
0.073500	15	-12.772686	-13.313016	1.407747
0.074500	15	-12.573189	-12.860988	1.269437
0.075500	15	-12.293470	-12.619824	1.152797
0.076500	15	-12.156263	-12.535224	1.110191
0.077500	23	-12.104169	-12.180420	1.116304
0.078500	15	-12.627567	-13.161496	1.152751
0.079500	15	-13.084560	-13.662768	1.261237
0.080500	15	-13.431535	-14.037772	1.391556
0.081500	15	-13.466889	-14.081964	1.500846
0.082500	15	-13.145588	-13.670344	1.525597
0.083500	15	-12.456689	-12.883716	1.496216
0.084500	15	-11.440679	-11.829404	1.429740
0.085500	21	-9.916378	-9.663968	1.310564
0.086500	15	-7.984061	-7.912680	0.908588
0.087500	16	-6.450773	-6.442330	0.735515
0.088500	15	-5.009016	-4.881068	0.579480
0.089500	15	-3.833745	-3.754788	0.451244
0.090500	15	-2.851491	-2.809066	0.339663
0.091500	15	-2.099796	-2.076732	0.272809
0.092500	15	-1.527649	-1.561572	0.196518
0.093500	15	-1.088248	-1.109545	0.136240
0.094500	15	-0.779068	-0.790096	0.103894
0.095500	23	-0.527136	-0.531253	0.084838
0.096500	15	-0.355409	-0.373423	0.051526
0.097500	15	-0.267024	-0.278724	0.041236
0.098500	15	-0.206332	-0.196652	0.038466
0.099500	15	-0.161046	-0.149934	0.036222
0.100500	15	-0.137392	-0.130995	0.046113
0.101500	15	-0.116600	-0.112055	0.042178
0.102500	15	-0.101533	-0.110792	0.046691
0.103500	15	-0.077290	-0.067862	0.033811
0.104500	21	-0.077482	-0.095640	0.042622
0.105500	16	-0.063206	-0.079857	0.043320
0.106500	15	-0.058855	-0.065337	0.047601
0.107500	15	-0.048501	-0.056498	0.044042
0.108500	15	-0.056161	-0.065337	0.043819
0.109500	15	-0.043703	-0.042609	0.050389
0.110500	15	-0.054646	-0.053973	0.041256
0.111500	15	-0.046060	-0.057761	0.040122
0.112500	15	-0.040167	-0.052711	0.043339
0.113500	23	-0.051228	-0.061549	0.042523
0.114500	15	-0.035286	-0.038821	0.037218
0.115500	15	-0.044881	-0.046397	0.049305
0.116500	15	-0.042861	-0.047660	0.043610
0.117500	15	-0.036043	-0.028720	0.048268
0.118500	15	-0.036042	-0.045135	0.043824
0.119500	15	-0.050858	-0.053973	0.047605
