x 14.875000
w 47.417199
wstd 0.004457
# theta(rad)	count	mean(uA)	median(uA)	std dev(uA)
0.000500	15	-0.074007	-0.067862	0.043019
0.001500	15	-0.081751	-0.098166	0.042512
0.002500	15	-0.074091	-0.064074	0.044197
0.003500	15	-0.071061	-0.057761	0.039406
0.004500	15	-0.086213	-0.095640	0.038860
0.005500	21	-0.065938	-0.067862	0.045346
0.006500	15	-0.075186	-0.069125	0.043293
0.007500	15	-0.077206	-0.080489	0.040114
0.008500	15	-0.085960	-0.093115	0.041782
0.009500	15	-0.084613	-0.074175	0.042963
0.010500	15	-0.085708	-0.081751	0.037082
0.011500	15	-0.085202	-0.088065	0.047039
0.012500	15	-0.084361	-0.084277	0.040772
0.013500	23	-0.094323	-0.105742	0.041222
0.014500	16	-0.093352	-0.091853	0.044653
0.015500	15	-0.086381	-0.094378	0.042018
0.016500	15	-0.098755	-0.094378	0.032980
0.017500	15	-0.103469	-0.112055	0.051745
0.018500	15	-0.098755	-0.110792	0.045688
0.019500	15	-0.106331	-0.108267	0.038347
0.020500	15	-0.117442	-0.125944	0.039334
0.021500	15	-0.117021	-0.118368	0.056553
0.022500	15	-0.128385	-0.132257	0.038021
0.023500	21	-0.137248	-0.146146	0.041419
0.024500	15	-0.152039	-0.173924	0.045211
0.025500	15	-0.177123	-0.175187	0.041811
0.026500	15	-0.198841	-0.196652	0.037647
0.027500	15	-0.229313	-0.235794	0.038881
0.028500	15	-0.261805	-0.262310	0.042273
0.029500	15	-0.308270	-0.320391	0.041522
0.030500	15	-0.365342	-0.369635	0.042820
0.031500	15	-0.434198	-0.436555	0.041915
0.032500	23	-0.597130	-0.588072	0.086418
0.033500	16	-0.772103	-0.785045	0.116862
0.034500	15	-1.008281	-1.018634	0.136646
0.035500	15	-1.294733	-1.331770	0.170548
0.036500	15	-1.691119	-1.743393	0.237613
0.037500	15	-2.213265	-2.327998	0.318631
0.038500	15	-2.890633	-3.008564	0.408292
0.039500	15	-3.741656	-3.894941	0.508248
0.040500	15	-4.743103	-4.929048	0.642333
0.041500	21	-6.063385	-6.206844	0.800178
0.042500	15	-7.653753	-7.473280	0.757266
0.043500	15	-8.934244	-8.732136	0.902771
0.044500	15	-10.059345	-9.865992	1.036391
0.045500	15	-10.903550	-10.785200	1.114951
0.046500	15	-11.367783	-11.239752	1.096788
0.047500	15	-11.496993	-11.488492	1.005424
0.048500	15	-11.427633	-11.479652	0.876184
0.049500	15	-11.352799	-11.374852	0.800421
0.050500	23	-11.529501	-11.632432	0.857853
0.051500	16	-11.699669	-11.873598	0.983780
0.052500	15	-11.707013	-12.011228	1.005749
0.053500	15	-11.414669	-11.695564	0.854829
0.054500	15	-10.913735	-11.163992	0.675789
0.055500	15	-10.280224	-10.444284	0.524811
0.056500	15	-9.654289	-9.767504	0.421069
0.057500	15	-9.059499	-9.162700	0.353455
0.058500	15	-8.562773	-8.618496	0.302382
0.059500	15	-8.223206	-8.315464	0.296732
0.060500	21	-8.006596	-8.139956	0.349859
0.061500	15	-8.075393	-8.165208	0.387800
0.062500	15	-8.179855	-8.240968	0.433780
0.063500	15	-8.247869	-8.259908	0.452957
0.064500	15	-8.261507	-8.204352	0.453406
0.065500	15	-8.225984	-8.145008	0.460716
0.066500	15	-8.174300	-8.119752	0.452295
0.067500	15	-8.147279	-8.057884	0.435673
0.068500	23	-8.350543	-8.296524	0.457187
0.069500	15	-8.669256	-8.621024	0.581864
0.070500	16	-9.252188	-9.215098	0.715750
0.071500	15	-9.958923	-9.913972	0.885669
0.072500	15	-10.514066	-10.410192	0.949856
0.073500	15	-10.821814	-10.728380	0.905201
0.074500	15	-10.949426	-10.878632	0.872168
0.075500	15	-11.099849	-11.016264	0.867126
0.076500	15	-11.337226	-11.230912	0.906068
0.077500	15	-11.735970	-11.664000	0.970539
0.078500	21	-12.272715	-12.104664	1.048116
0.079500	15	-13.199040	-12.815532	1.144195
0.080500	15	-13.681370	-13.396348	1.268471
0.081500	15	-13.756456	-13.632464	1.325210
0.082500	15	-13.387090	-13.328168	1.328994
0.083500	15	-12.644991	-12.473356	1.291874
0.084500	15	-11.586894	-11.143788	1.238922
0.085500	15	-10.202866	-9.983420	1.132931
0.086500	15	-8.637523	-8.453092	0.994963
0.087500	23	-6.705096	-6.629832	0.861482
0.088500	16	-4.784396	-4.747858	0.404399
0.089500	15	-3.571451	-3.588118	0.277555
0.090500	15	-2.640545	-2.644922	0.208064
0.091500	15	-1.913513	-1.903749	0.160805
0.092500	15	-1.364768	-1.363337	0.120472
0.093500	15	-0.979324	-0.964341	0.074552
0.094500	15	-0.696660	-0.694134	0.059157
0.095500	15	-0.498004	-0.499687	0.038333
0.096500	15	-0.362480	-0.373423	0.037571
0.097500	21	-0.250465	-0.269886	0.055775
0.098500	15	-0.190676	-0.206753	0.049531
0.099500	15	-0.153385	-0.156247	0.048068
0.100500	15	-0.123334	-0.132257	0.036357
0.101500	15	-0.109277	-0.127207	0.050502
0.102500	15	-0.084361	-0.086802	0.059169
0.103500	15	-0.080910	-0.079226	0.046591
0.104500	15	-0.070472	-0.069125	0.043183
0.105500	23	-0.066709	-0.066600	0.038267
0.106500	16	-0.052789	-0.047660	0.043248
0.107500	15	-0.051448	-0.057761	0.038923
0.108500	15	-0.049175	-0.062812	0.037720
0.109500	15	-0.048164	-0.052711	0.040545
0.110500	15	-0.036211	-0.040084	0.049204
0.111500	15	-0.041431	-0.036296	0.039427
0.112500	15	-0.046145	-0.036296	0.036424
0.113500	15	-0.034022	-0.022407	0.045946
0.114500	15	-0.044713	-0.048923	0.039926
0.115500	21	-0.030763	-0.024932	0.043586
0.116500	15	-0.040841	-0.051448	0.043606
0.117500	15	-0.030403	-0.014831	0.041410
0.118500	15	-0.035033	-0.033771	0.043279
0.119500	15	-0.029392	-0.045135	0.049015
