x 13.875000
w 47.642687
wstd 0.011734
# theta(rad)	count	mean(uA)	median(uA)	std dev(uA)
0.000500	15	-0.057424	-0.055236	0.030643
0.001500	15	-0.064832	-0.064074	0.029228
0.002500	15	-0.066852	-0.055236	0.036974
0.003500	15	-0.075017	-0.080489	0.031624
0.004500	15	-0.069714	-0.061549	0.037045
0.005500	15	-0.061970	-0.060286	0.034826
0.006500	15	-0.064579	-0.062812	0.039787
0.007500	15	-0.066263	-0.056498	0.037777
0.008500	18	-0.069054	-0.075438	0.037991
0.009500	18	-0.081822	-0.089327	0.030795
0.010500	19	-0.079758	-0.074175	0.029020
0.011500	15	-0.072408	-0.066600	0.049103
0.012500	15	-0.074175	-0.065337	0.032297
0.013500	15	-0.074849	-0.071650	0.047016
0.014500	15	-0.082677	-0.085539	0.041586
0.015500	15	-0.080405	-0.072913	0.035818
0.016500	15	-0.098418	-0.095640	0.032800
0.017500	15	-0.083772	-0.076701	0.041088
0.018500	16	-0.083330	-0.076701	0.037489
0.019500	16	-0.097377	-0.094378	0.042618
0.020500	18	-0.098236	-0.095640	0.037789
0.021500	15	-0.110708	-0.112055	0.031421
0.022500	15	-0.112728	-0.117105	0.039773
0.023500	15	-0.116600	-0.113318	0.039448
0.024500	15	-0.128048	-0.136045	0.039775
0.025500	15	-0.145305	-0.142358	0.039435
0.026500	15	-0.160793	-0.163823	0.039778
0.027500	15	-0.185625	-0.177712	0.036912
0.028500	18	-0.217696	-0.220642	0.035529
0.029500	18	-0.269605	-0.272411	0.041931
0.030500	19	-0.321322	-0.311553	0.059631
0.031500	15	-0.401453	-0.402463	0.054056
0.032500	15	-0.503980	-0.517364	0.071213
0.033500	15	-0.639672	-0.652467	0.092000
0.034500	15	-0.824860	-0.812823	0.116761
0.035500	15	-1.071076	-1.059039	0.159224
0.036500	15	-1.413758	-1.384802	0.200450
0.037500	15	-1.859809	-1.827990	0.270344
0.038500	16	-2.486854	-2.439111	0.351367
0.039500	16	-3.302287	-3.340640	0.422575
0.040500	18	-4.368433	-4.443560	0.499816
0.041500	15	-5.634109	-5.715676	0.499728
0.042500	15	-6.889432	-6.872260	0.588687
0.043500	15	-8.194249	-8.214452	0.707201
0.044500	15	-9.430127	-9.405128	0.844252
0.045500	15	-10.432836	-10.494788	0.950392
0.046500	15	-10.972575	-10.826864	1.001336
0.047500	15	-10.940251	-10.696812	0.937947
0.048500	18	-10.434533	-10.244786	0.776930
0.049500	18	-9.597820	-9.469520	0.648748
0.050500	15	-8.869175	-8.805368	0.436246
0.051500	19	-8.271935	-8.277584	0.343137
0.052500	15	-7.956283	-8.025056	0.256058
0.053500	15	-7.825221	-7.857124	0.224377
0.054500	15	-7.752829	-7.735908	0.236931
0.055500	15	-7.677069	-7.670252	0.268499
0.056500	15	-7.496764	-7.464440	0.295259
0.057500	15	-7.188847	-7.175296	0.305488
0.058500	16	-6.736683	-6.739682	0.297107
0.059500	16	-6.303201	-6.302806	0.267580
0.060500	18	-5.884520	-5.831208	0.186066
0.061500	15	-5.701534	-5.681584	0.154974
0.062500	15	-5.704734	-5.725776	0.151061
0.063500	15	-5.852547	-5.872244	0.163912
0.064500	15	-6.059453	-6.088156	0.198284
0.065500	15	-6.256089	-6.291444	0.227589
0.066500	15	-6.370315	-6.367200	0.254878
0.067500	15	-6.361982	-6.357100	0.265786
0.068500	18	-6.256088	-6.249776	0.265484
0.069500	15	-6.166694	-6.238412	0.254116
0.070500	18	-6.147921	-6.193588	0.249747
0.071500	19	-6.421163	-6.398768	0.302750
0.072500	15	-6.889011	-6.843220	0.429324
0.073500	15	-7.445753	-7.417724	0.534041
0.074500	15	-8.087261	-8.006116	0.642096
0.075500	15	-8.685419	-8.691732	0.743465
0.076500	15	-9.178271	-9.288964	0.780686
0.077500	15	-9.578782	-9.718264	0.812734
0.078500	16	-9.927546	-9.927862	0.842896
0.079500	16	-10.455489	-10.595170	0.907241
0.080500	18	-10.975647	-10.891890	1.068948
0.081500	15	-11.550698	-11.762484	1.202911
0.082500	15	-11.856005	-12.225876	1.330762
0.083500	15	-11.800871	-12.199360	1.373944
0.084500	15	-11.183773	-11.508692	1.331855
0.085500	15	-9.975927	-10.150088	1.199092
0.086500	15	-8.398293	-8.426576	1.009344
0.087500	15	-6.740102	-6.732104	0.812433
0.088500	18	-5.020519	-5.045210	0.754591
0.089500	15	-3.701167	-3.716908	0.576345
0.090500	18	-2.640503	-2.646185	0.443135
0.091500	19	-1.725583	-1.631018	0.302570
0.092500	15	-1.154074	-1.124697	0.203730
0.093500	15	-0.804406	-0.763580	0.156597
0.094500	15	-0.568375	-0.543880	0.117945
0.095500	15	-0.403389	-0.380998	0.083289
0.096500	15	-0.298674	-0.297664	0.068211
0.097500	15	-0.219885	-0.206753	0.049564
0.098500	16	-0.170768	-0.164455	0.054327
0.099500	16	-0.138807	-0.136045	0.060132
0.100500	15	-0.104226	-0.105742	0.044682
0.101500	18	-0.080068	-0.079226	0.041246
0.102500	15	-0.089075	-0.072913	0.041138
0.103500	15	-0.068704	-0.067862	0.030838
0.104500	15	-0.063064	-0.062812	0.043315
0.105500	15	-0.063064	-0.069125	0.042526
0.106500	15	-0.051953	-0.048923	0.039422
0.107500	15	-0.046144	-0.037559	0.042777
0.108500	18	-0.052430	-0.051448	0.033075
0.109500	15	-0.049764	-0.053973	0.038197
0.110500	18	-0.047168	-0.064074	0.051867
0.111500	15	-0.055825	-0.075438	0.040793
0.112500	19	-0.027988	-0.021144	0.043154
0.113500	15	-0.045808	-0.027458	0.043354
0.114500	15	-0.047575	-0.051448	0.045357
0.115500	15	-0.044629	-0.038821	0.042987
0.116500	15	-0.044376	-0.033771	0.049237
0.117500	15	-0.046480	-0.023670	0.062873
0.118500	16	-0.032270	-0.024932	0.042678
0.119500	16	-0.037400	-0.020513	0.054313
