x 2.375000
w 48.148596
wstd 0.005702
# theta(rad)	count	mean(uA)	median(uA)	std dev(uA)
0.000500	18	-0.045836	-0.043872	0.040056
0.001500	15	-0.045050	-0.046397	0.034528
0.002500	15	-0.045555	-0.050185	0.034710
0.003500	15	-0.044545	-0.047660	0.037172
0.004500	15	-0.047407	-0.043872	0.035382
0.005500	15	-0.044882	-0.053973	0.033287
0.006500	15	-0.046145	-0.042609	0.029555
0.007500	15	-0.042525	-0.047660	0.033320
0.008500	15	-0.044714	-0.052711	0.029137
0.009500	15	-0.040420	-0.045135	0.035758
0.010500	15	-0.041010	-0.055236	0.032387
0.011500	15	-0.047996	-0.059024	0.028285
0.012500	23	-0.050844	-0.060286	0.039141
0.013500	15	-0.045976	-0.064074	0.032918
0.014500	17	-0.041792	-0.052711	0.028910
0.015500	15	-0.050101	-0.055236	0.037142
0.016500	15	-0.048585	-0.064074	0.037575
0.017500	15	-0.050437	-0.067862	0.040516
0.018500	15	-0.052458	-0.045135	0.041200
0.019500	15	-0.060286	-0.070388	0.036195
0.020500	15	-0.044292	-0.047660	0.042407
0.021500	15	-0.039662	-0.059024	0.040308
0.022500	15	-0.053468	-0.057761	0.033908
0.023500	15	-0.052710	-0.065337	0.040168
0.024500	15	-0.049259	-0.052711	0.041588
0.025500	17	-0.057613	-0.061549	0.032982
0.026500	18	-0.044573	-0.057130	0.032173
0.027500	15	-0.050269	-0.066600	0.030476
0.028500	15	-0.052374	-0.048923	0.030619
0.029500	15	-0.046649	-0.066600	0.040015
0.030500	15	-0.050353	-0.051448	0.036499
0.031500	15	-0.054647	-0.059024	0.025583
0.032500	15	-0.046313	-0.051448	0.034223
0.033500	15	-0.043956	-0.041347	0.033278
0.034500	15	-0.046145	-0.041347	0.032340
0.035500	15	-0.050101	-0.048923	0.028565
0.036500	15	-0.042609	-0.037559	0.033774
0.037500	15	-0.058098	-0.070388	0.036998
0.038500	23	-0.053699	-0.052711	0.029384
0.039500	15	-0.049512	-0.057761	0.031202
0.040500	17	-0.055533	-0.070388	0.034907
0.041500	15	-0.050522	-0.059024	0.028122
0.042500	15	-0.056414	-0.072913	0.039213
0.043500	15	-0.054899	-0.070388	0.034337
0.044500	15	-0.056498	-0.062812	0.029937
0.045500	15	-0.057004	-0.075438	0.030418
0.046500	15	-0.056919	-0.071650	0.032941
0.047500	15	-0.051195	-0.045135	0.035310
0.048500	15	-0.052963	-0.072913	0.046538
0.049500	15	-0.060118	-0.066600	0.036745
0.050500	15	-0.062391	-0.066600	0.032011
0.051500	17	-0.055087	-0.061549	0.032203
0.052500	18	-0.051728	-0.054604	0.033344
0.053500	15	-0.053805	-0.072913	0.032993
0.054500	15	-0.050690	-0.067862	0.040379
0.055500	15	-0.058519	-0.064074	0.033313
0.056500	15	-0.052458	-0.059024	0.035014
0.057500	15	-0.052711	-0.061549	0.030829
0.058500	15	-0.065421	-0.067862	0.036788
0.059500	15	-0.056498	-0.071650	0.040806
0.060500	15	-0.047071	-0.046397	0.036329
0.061500	15	-0.059613	-0.064074	0.039342
0.062500	15	-0.056077	-0.069125	0.037342
0.063500	15	-0.058855	-0.065337	0.049655
0.064500	23	-0.054961	-0.055236	0.029824
0.065500	15	-0.056330	-0.061549	0.044052
0.066500	17	-0.058504	-0.062812	0.037895
0.067500	15	-0.057677	-0.064074	0.042949
0.068500	15	-0.070724	-0.072913	0.040929
0.069500	15	-0.056246	-0.065337	0.039662
0.070500	15	-0.048923	-0.045135	0.031816
0.071500	15	-0.053552	-0.051448	0.043620
0.072500	15	-0.058518	-0.059024	0.043618
0.073500	15	-0.046986	-0.056498	0.044002
0.074500	15	-0.061801	-0.074175	0.044580
0.075500	15	-0.058350	-0.069125	0.040515
0.076500	15	-0.060034	-0.050185	0.033401
0.077500	17	-0.046545	-0.052711	0.044607
0.078500	18	-0.052009	-0.047660	0.048419
0.079500	15	-0.051700	-0.052711	0.043629
0.080500	15	-0.058771	-0.075438	0.049476
0.081500	15	-0.053720	-0.048923	0.041828
0.082500	15	-0.048080	-0.043872	0.043725
0.083500	15	-0.051447	-0.059024	0.045702
0.084500	15	-0.055236	-0.061549	0.041791
0.085500	15	-0.045133	-0.042609	0.057094
0.086500	15	-0.058097	-0.056498	0.051497
0.087500	15	-0.050773	-0.059024	0.050982
0.088500	15	-0.056162	-0.064074	0.035048
0.089500	15	-0.052625	-0.053973	0.044026
0.090500	23	-0.051393	-0.052711	0.038171
0.091500	15	-0.050184	-0.066600	0.045234
0.092500	17	-0.060583	-0.059024	0.042798
0.093500	15	-0.051110	-0.037559	0.054487
0.094500	15	-0.043703	-0.053973	0.038023
0.095500	15	-0.054057	-0.050185	0.043895
0.096500	15	-0.040672	-0.045135	0.053741
0.097500	15	-0.038315	-0.037559	0.046825
0.098500	15	-0.055320	-0.057761	0.040364
0.099500	15	-0.050016	-0.046397	0.045708
0.100500	15	-0.038568	-0.055236	0.041668
0.101500	15	-0.049595	-0.051448	0.055161
0.102500	17	-0.048253	-0.056498	0.043481
0.103500	15	-0.036800	-0.022407	0.048161
0.104500	18	-0.040925	-0.040084	0.046638
0.105500	15	-0.043703	-0.038821	0.042630
0.106500	15	-0.047322	-0.042609	0.049082
0.107500	15	-0.043871	-0.052711	0.041520
0.108500	15	-0.040420	-0.042609	0.044656
0.109500	15	-0.037642	-0.047660	0.044768
0.110500	15	-0.042019	-0.045135	0.046435
0.111500	15	-0.040505	-0.047660	0.035668
0.112500	15	-0.042524	-0.031246	0.042236
0.113500	15	-0.038652	-0.038821	0.046836
0.114500	15	-0.044292	-0.055236	0.039209
0.115500	15	-0.036211	-0.046397	0.044591
0.116500	23	-0.034648	-0.032508	0.042600
0.117500	15	-0.041935	-0.041347	0.045326
0.118500	15	-0.044629	-0.048923	0.034548
0.119500	17	-0.040529	-0.052711	0.039075
