x 0.625000
w 47.803208
wstd 0.004316
# theta(rad)	count	mean(uA)	median(uA)	std dev(uA)
0.000500	15	-0.013735	0.007898	0.044058
0.001500	15	-0.022321	-0.009781	0.040741
0.002500	15	-0.026361	-0.045135	0.046521
0.003500	15	-0.013314	-0.000942	0.038428
0.004500	15	-0.016682	-0.005993	0.034596
0.005500	15	-0.020048	-0.004730	0.046848
0.006500	15	-0.015839	0.006635	0.045423
0.007500	15	-0.007842	-0.004730	0.044389
0.008500	15	-0.016765	-0.018619	0.043336
0.009500	17	-0.020325	-0.014831	0.044910
0.010500	19	-0.022605	-0.022407	0.034501
0.011500	15	-0.010619	-0.004730	0.045856
0.012500	15	-0.017271	0.000321	0.039843
0.013500	15	-0.018954	-0.005993	0.039244
0.014500	15	-0.022237	-0.011043	0.041180
0.015500	15	-0.017944	-0.018619	0.040648
0.016500	15	-0.016934	-0.012306	0.038571
0.017500	15	-0.007421	0.000321	0.043599
0.018500	15	-0.025604	-0.027458	0.042122
0.019500	15	-0.015755	-0.003467	0.045342
0.020500	24	-0.016039	-0.012306	0.043104
0.021500	15	-0.024678	-0.019882	0.038947
0.022500	15	-0.023752	-0.017356	0.042733
0.023500	15	-0.024173	-0.008518	0.048754
0.024500	15	-0.019796	-0.011043	0.041562
0.025500	15	-0.018196	-0.018619	0.044493
0.026500	15	-0.021984	-0.007255	0.051249
0.027500	15	-0.030655	-0.027458	0.039925
0.028500	15	-0.015249	-0.018619	0.052988
0.029500	15	-0.019627	-0.004730	0.045000
0.030500	15	-0.029224	-0.032508	0.042142
0.031500	17	-0.022109	-0.011043	0.039158
0.032500	19	-0.019282	-0.014831	0.046726
0.033500	15	-0.023921	-0.019882	0.040681
0.034500	15	-0.017776	-0.009781	0.038413
0.035500	15	-0.033518	-0.017356	0.045510
0.036500	15	-0.026446	-0.016094	0.040677
0.037500	15	-0.026783	-0.028720	0.035415
0.038500	15	-0.027709	-0.012306	0.040198
0.039500	15	-0.022743	-0.009781	0.041903
0.040500	15	-0.023500	-0.017356	0.040655
0.041500	15	-0.029224	-0.032508	0.034929
0.042500	24	-0.025457	-0.023670	0.042913
0.043500	15	-0.024510	-0.023670	0.037054
0.044500	15	-0.022238	-0.004730	0.038315
0.045500	15	-0.022742	-0.007255	0.044796
0.046500	15	-0.026194	-0.026195	0.039500
0.047500	15	-0.025183	-0.027458	0.044042
0.048500	15	-0.024511	-0.011043	0.034090
0.049500	15	-0.025352	-0.026195	0.041472
0.050500	15	-0.033433	-0.009781	0.046810
0.051500	15	-0.028635	-0.022407	0.043829
0.052500	17	-0.022109	-0.013569	0.039896
0.053500	15	-0.040588	-0.032508	0.045756
0.054500	19	-0.028454	-0.024932	0.031824
0.055500	15	-0.026278	-0.016094	0.039757
0.056500	15	-0.027456	-0.021144	0.044809
0.057500	15	-0.032339	-0.032508	0.038439
0.058500	15	-0.036380	-0.028720	0.037540
0.059500	15	-0.017523	-0.009781	0.048674
0.060500	15	-0.022827	-0.005993	0.039824
0.061500	15	-0.039242	-0.031246	0.044047
0.062500	15	-0.024427	-0.014831	0.035570
0.063500	15	-0.019207	-0.009781	0.039374
0.064500	24	-0.027772	-0.016094	0.044238
0.065500	15	-0.020806	-0.019882	0.037340
0.066500	15	-0.029730	-0.023670	0.038579
0.067500	15	-0.027962	-0.014831	0.036379
0.068500	15	-0.022069	-0.009781	0.038275
0.069500	15	-0.024342	-0.022407	0.038346
0.070500	15	-0.031329	-0.024932	0.037557
0.071500	15	-0.017860	-0.019882	0.041578
0.072500	15	-0.020974	-0.018619	0.046674
0.073500	15	-0.025605	-0.012306	0.034134
0.074500	17	-0.026417	-0.021144	0.042572
0.075500	19	-0.022671	-0.012306	0.046107
0.076500	15	-0.029730	-0.016094	0.036457
0.077500	15	-0.017776	-0.023670	0.041169
0.078500	15	-0.029308	-0.011043	0.045726
0.079500	15	-0.029645	-0.031246	0.046375
0.080500	15	-0.027036	-0.014831	0.039046
0.081500	15	-0.024258	-0.018619	0.040879
0.082500	15	-0.034022	-0.019882	0.049006
0.083500	15	-0.024510	-0.005993	0.043842
0.084500	15	-0.013061	-0.003467	0.041207
0.085500	15	-0.035201	-0.027458	0.042025
0.086500	24	-0.034244	-0.021776	0.041342
0.087500	15	-0.017186	-0.018619	0.042637
0.088500	15	-0.029309	-0.021144	0.037103
0.089500	15	-0.026783	-0.014831	0.039353
0.090500	15	-0.025268	-0.027458	0.039428
0.091500	15	-0.027709	-0.027458	0.037173
0.092500	15	-0.026110	-0.017356	0.040328
0.093500	15	-0.024595	-0.027458	0.036679
0.094500	15	-0.028046	-0.027458	0.042621
0.095500	15	-0.025183	-0.014831	0.046808
0.096500	17	-0.009630	0.001584	0.041293
0.097500	19	-0.031112	-0.033771	0.037861
0.098500	15	-0.031076	-0.011043	0.043198
0.099500	15	-0.005233	0.001584	0.037520
0.100500	15	-0.030066	-0.022407	0.037433
0.101500	15	-0.024678	-0.003467	0.045675
0.102500	15	-0.014072	-0.007255	0.040404
0.103500	15	-0.014914	-0.007255	0.031836
0.104500	15	-0.023331	-0.022407	0.041146
0.105500	15	-0.016850	-0.011043	0.041364
0.106500	16	-0.020433	-0.011043	0.034612
0.107500	26	-0.027019	-0.028089	0.041485
0.108500	16	-0.016487	-0.011043	0.033553
0.109500	16	-0.020433	-0.012937	0.040594
0.110500	16	-0.022721	-0.026195	0.037192
0.111500	16	-0.025878	-0.026195	0.042315
0.112500	16	-0.020354	-0.026195	0.033923
0.113500	16	-0.027062	-0.020513	0.044956
0.114500	16	-0.029903	-0.025564	0.045013
0.115500	16	-0.023747	-0.012937	0.043649
0.116500	16	-0.018775	-0.009781	0.042664
0.117500	18	-0.022826	-0.024932	0.040077
0.118500	16	-0.023590	-0.021144	0.037872
0.119500	20	-0.022469	-0.019882	0.041336
