x 0.000000
w 46.183723
wstd 0.035183
# theta(rad)	count	mean(uA)	median(uA)	std dev(uA)
0.000500	17	0.004854	0.003237	0.010923
0.001500	15	0.005974	0.007973	0.012740
0.002500	15	0.004059	0.003237	0.011810
0.003500	16	0.008092	0.008920	0.010135
0.004500	15	0.006311	0.006395	0.013209
0.005500	16	0.007836	0.008289	0.013652
0.006500	16	0.007895	0.011604	0.012340
0.007500	18	0.004554	0.003395	0.012349
0.008500	16	0.004797	0.006552	0.013043
0.009500	17	0.008884	0.013656	0.011916
0.010500	18	0.004992	0.001185	0.012222
0.011500	16	0.009138	0.010815	0.010923
0.012500	17	0.005169	0.004816	0.011894
0.013500	15	0.006080	0.006710	0.014822
0.014500	15	0.004290	0.003553	0.012678
0.015500	16	0.010697	0.012393	0.012142
0.016500	15	0.006585	0.005132	0.014587
0.017500	16	0.007441	0.007184	0.012451
0.018500	16	0.006375	0.007815	0.012107
0.019500	18	0.006395	0.008131	0.011078
0.020500	16	0.002863	0.003711	0.010324
0.021500	17	0.005281	0.006079	0.012581
0.022500	18	0.009780	0.012867	0.014654
0.023500	16	0.008092	0.006079	0.011439
0.024500	17	0.004835	0.004500	0.011702
0.025500	15	0.003743	-0.001182	0.013310
0.026500	15	0.004648	0.005447	0.011311
0.027500	16	0.008349	0.010815	0.013111
0.028500	15	0.008037	0.008920	0.012569
0.029500	15	0.005953	0.006079	0.011918
0.030500	17	0.009868	0.011130	0.012105
0.031500	18	0.005430	0.008763	0.010633
0.032500	16	0.003218	0.000238	0.012346
0.033500	17	0.004018	0.003553	0.011567
0.034500	17	0.006246	0.007342	0.010932
0.035500	17	0.008976	0.008605	0.009166
0.036500	15	0.005238	0.003237	0.013175
0.037500	17	0.006748	0.006395	0.012430
0.038500	15	0.003912	0.005447	0.012780
0.039500	16	0.007421	0.010815	0.010973
0.040500	15	0.005785	0.009552	0.012608
0.041500	15	0.011257	0.012078	0.010564
0.042500	17	0.008809	0.004185	0.011754
0.043500	18	0.005535	0.004342	0.009346
0.044500	16	0.006770	0.009710	0.009589
0.045500	17	0.005578	0.008605	0.011493
0.046500	17	0.004594	0.000396	0.014061
0.047500	16	0.008605	0.007658	0.010433
0.048500	16	0.007697	0.008289	0.008931
0.049500	17	0.004705	0.002606	0.011129
0.050500	15	0.006584	0.004500	0.010817
0.051500	16	0.007086	0.008763	0.011985
0.052500	15	0.004964	0.006079	0.010942
0.053500	15	0.006900	0.008605	0.010786
0.054500	16	0.009729	0.009868	0.008273
0.055500	19	0.006146	0.007973	0.010456
0.056500	16	0.004461	0.004816	0.009301
0.057500	17	0.004947	0.006395	0.012118
0.058500	17	0.005244	0.005132	0.010693
0.059500	16	0.008447	0.007973	0.012031
0.060500	16	0.007658	0.009552	0.008002
0.061500	17	0.005652	0.001974	0.008631
0.062500	15	0.008015	0.008289	0.008341
0.063500	16	0.004264	0.002132	0.008500
0.064500	15	0.004038	0.003553	0.010327
0.065500	15	0.007195	0.006395	0.008100
0.066500	16	0.009591	0.005447	0.010623
0.067500	19	0.008140	0.009236	0.008994
0.068500	16	0.006158	0.008447	0.009456
0.069500	17	0.004296	0.003553	0.007938
0.070500	17	0.004761	0.005763	0.009192
0.071500	16	0.005231	0.001974	0.008426
0.072500	16	0.008033	0.008447	0.010417
0.073500	15	0.010183	0.010499	0.007382
0.074500	17	0.006469	0.007658	0.010036
0.075500	16	0.005251	0.004342	0.012517
0.076500	15	0.003069	0.003553	0.008606
0.077500	15	0.008331	0.011446	0.011245
0.078500	16	0.005389	0.005132	0.010415
0.079500	19	0.009253	0.010815	0.010595
0.080500	16	0.007638	0.007026	0.010079
0.081500	16	0.006395	0.005132	0.012849
0.082500	18	0.005430	0.007026	0.011060
0.083500	16	0.005053	0.008605	0.011728
0.084500	16	0.007046	0.006395	0.006816
0.085500	15	0.008226	0.008920	0.009142
0.086500	17	0.007546	0.005447	0.007159
0.087500	16	0.006237	0.006395	0.008680
0.088500	15	0.002522	-0.000551	0.009020
0.089500	15	0.005027	0.009552	0.011462
0.090500	15	0.008394	0.011130	0.008739
0.091500	19	0.006528	0.007658	0.009260
0.092500	17	0.008085	0.007658	0.008231
0.093500	16	0.006434	0.009078	0.009608
0.094500	16	0.006454	0.009236	0.009928
0.095500	18	0.005886	0.009078	0.008849
0.096500	16	0.003968	0.003237	0.010044
0.097500	15	0.008773	0.006710	0.010984
0.098500	17	0.012152	0.013341	0.009573
0.099500	16	0.004106	0.002132	0.007320
0.100500	15	0.004585	0.008920	0.008220
0.101500	15	0.007868	0.008289	0.007931
0.102500	15	0.004585	0.005447	0.009696
0.103500	19	0.008921	0.010815	0.009190
0.104500	17	0.011836	0.012078	0.011381
0.105500	16	0.006197	0.004500	0.007811
0.106500	16	0.006454	0.006079	0.009234
0.107500	17	0.006785	0.007026	0.011021
0.108500	16	0.006809	0.010657	0.010880
0.109500	16	0.009532	0.005921	0.012718
0.110500	17	0.010239	0.010815	0.010494
0.111500	16	0.011209	0.011920	0.010057
0.112500	15	0.005027	0.006079	0.010384
0.113500	15	0.005511	0.002922	0.011415
0.114500	15	0.006921	0.010499	0.011469
0.115500	19	0.009236	0.010183	0.009712
0.116500	17	0.006525	0.002606	0.012688
0.117500	16	0.009315	0.008131	0.009721
0.118500	16	0.008921	0.007973	0.008494
0.119500	17	0.004204	0.008289	0.011791
