x 0.252525
w 46.109658
wstd 0.011384
# theta(rad)	count	mean(uA)	median(uA)	std dev(uA)
0.000500	18	0.006518	0.009078	0.012752
0.001500	20	0.008668	0.011446	0.010399
0.002500	15	0.007658	0.006079	0.011083
0.003500	15	0.006647	0.001343	0.012216
0.004500	15	0.009152	0.009552	0.010707
0.005500	15	0.010162	0.010183	0.009257
0.006500	19	0.005664	0.003237	0.009175
0.007500	18	0.007184	0.004500	0.012391
0.008500	15	0.010583	0.009868	0.009308
0.009500	15	0.005974	0.003869	0.008960
0.010500	15	0.008921	0.005447	0.011656
0.011500	15	0.007047	0.006710	0.010324
0.012500	18	0.009534	0.008289	0.010768
0.013500	20	0.008305	0.010183	0.011436
0.014500	15	0.011531	0.010815	0.012523
0.015500	15	0.007384	0.004185	0.009866
0.016500	15	0.005279	0.005132	0.008654
0.017500	15	0.010815	0.007973	0.012619
0.018500	19	0.005465	0.007026	0.011757
0.019500	18	0.008657	0.007500	0.010234
0.020500	15	0.008710	0.010183	0.009935
0.021500	15	0.008731	0.009868	0.012160
0.022500	15	0.007174	0.006079	0.010678
0.023500	15	0.008142	0.009868	0.009147
0.024500	23	0.004322	0.004185	0.011353
0.025500	15	0.006690	0.007026	0.012055
0.026500	15	0.008605	0.007658	0.010699
0.027500	15	0.007531	0.004185	0.010496
0.028500	15	0.007573	0.007973	0.009232
0.029500	16	0.007559	0.007658	0.009102
0.030500	18	0.004939	0.004027	0.011436
0.031500	18	0.003800	0.007815	0.021007
0.032500	15	0.004774	0.004185	0.008270
0.033500	15	0.008921	0.004816	0.010972
0.034500	15	0.006963	0.009236	0.010112
0.035500	15	0.009194	0.010183	0.009760
0.036500	23	0.006711	0.006710	0.008767
0.037500	15	0.005048	0.007973	0.012147
0.038500	15	0.006900	0.008605	0.009859
0.039500	15	0.006311	0.002922	0.011089
0.040500	15	0.006374	0.006079	0.010241
0.041500	16	0.005329	0.006079	0.009817
0.042500	18	0.007710	0.008289	0.011449
0.043500	18	0.005360	0.006395	0.011941
0.044500	15	0.004038	0.002606	0.011356
0.045500	15	0.006711	0.005763	0.010034
0.046500	15	0.008626	0.011762	0.012616
0.047500	18	0.004203	0.004027	0.012690
0.048500	20	0.004185	0.004974	0.010974
0.049500	15	0.010541	0.008289	0.011463
0.050500	15	0.004585	0.005132	0.012112
0.051500	15	0.006879	0.005132	0.012123
0.052500	15	0.006879	0.003237	0.010216
0.053500	16	0.006198	0.006237	0.009031
0.054500	18	0.002992	0.003080	0.010645
0.055500	18	0.006483	0.005763	0.013410
0.056500	15	0.003280	0.002606	0.011228
0.057500	15	0.008352	0.012078	0.010909
0.058500	15	0.004332	0.002606	0.011742
0.059500	18	0.005185	0.006079	0.010704
0.060500	20	0.006221	0.004816	0.012669
0.061500	15	0.003512	0.004816	0.011197
0.062500	15	0.005680	0.001343	0.013166
0.063500	15	0.003449	0.004185	0.011460
0.064500	15	0.006879	0.003553	0.011171
0.065500	16	0.005704	0.007815	0.010867
0.066500	18	0.005167	0.005290	0.011988
0.067500	18	0.005167	0.006552	0.012080
0.068500	15	0.002754	-0.000236	0.011365
0.069500	15	0.005553	0.007026	0.011531
0.070500	15	0.003764	0.000080	0.010968
0.071500	18	0.006395	0.004658	0.010876
0.072500	20	0.005590	0.008131	0.010899
0.073500	15	0.006374	0.005132	0.012878
0.074500	15	0.005258	0.004185	0.008725
0.075500	15	0.007048	0.008289	0.013649
0.076500	15	0.002270	-0.000867	0.010430
0.077500	19	0.005265	0.004816	0.012341
0.078500	15	0.004227	0.001659	0.009523
0.079500	18	0.005430	0.007500	0.012420
0.080500	15	0.003070	0.001974	0.011741
0.081500	15	0.006732	0.002606	0.010481
0.082500	15	0.004606	0.004816	0.010935
0.083500	18	0.004466	0.002764	0.012867
0.084500	20	0.005795	0.008131	0.012026
0.085500	15	0.004922	0.007026	0.010983
0.086500	15	0.003301	0.002922	0.012457
0.087500	15	0.006122	0.006079	0.012970
0.088500	16	0.003218	0.004342	0.011514
0.089500	18	0.005132	0.004027	0.010828
0.090500	15	0.004059	-0.001498	0.013787
0.091500	18	0.003729	0.001659	0.010375
0.092500	15	0.004795	0.005132	0.011605
0.093500	15	0.005237	0.001974	0.013143
0.094500	15	0.003849	0.004500	0.014019
0.095500	18	0.003957	0.002606	0.009477
0.096500	20	0.007090	0.010973	0.012028
0.097500	15	0.004438	0.006079	0.009650
0.098500	15	0.006816	0.003237	0.011526
0.099500	15	0.002775	-0.001182	0.010478
0.100500	16	0.005349	0.005447	0.012153
0.101500	18	0.003326	0.004658	0.010118
0.102500	15	0.004795	0.001343	0.012183
0.103500	18	0.006079	0.004974	0.012118
0.104500	15	0.009952	0.015235	0.012525
0.105500	15	0.005427	0.004816	0.012387
0.106500	18	0.005501	0.001501	0.013861
0.107500	20	0.006869	0.005605	0.012237
0.108500	15	0.005763	0.007026	0.008795
0.109500	15	0.007279	0.011446	0.010438
0.110500	15	0.001491	0.006395	0.012962
0.111500	15	0.005827	0.003237	0.013155
0.112500	16	0.008467	0.007342	0.010119
0.113500	18	0.004238	0.002922	0.012548
0.114500	15	0.002207	0.004816	0.012786
0.115500	18	0.005062	0.001501	0.010807
0.116500	15	0.006837	0.004500	0.011280
0.117500	15	0.002691	0.007973	0.013095
0.118500	18	0.006553	0.004974	0.011320
0.119500	20	0.009110	0.010499	0.013211
