x 0.505051
w 46.069608
wstd 0.012191
# theta(rad)	count	mean(uA)	median(uA)	std dev(uA)
0.000500	17	0.006339	0.008289	0.008516
0.001500	15	0.003954	0.001027	0.011982
0.002500	15	0.004416	0.001974	0.010046
0.003500	15	0.006437	0.004185	0.008962
0.004500	15	0.005511	0.004500	0.011550
0.005500	22	0.003525	0.004185	0.010007
0.006500	16	0.002903	0.001185	0.010519
0.007500	15	0.005469	0.005763	0.009660
0.008500	15	0.001722	0.000080	0.009018
0.009500	15	0.002859	0.001343	0.009934
0.010500	18	0.005799	0.007500	0.009421
0.011500	17	0.007881	0.009552	0.011047
0.012500	17	0.000712	-0.000551	0.010671
0.013500	15	0.003911	0.000080	0.008281
0.014500	15	0.003575	0.002606	0.010920
0.015500	15	0.003638	0.002922	0.010121
0.016500	20	0.006316	0.005290	0.010278
0.017500	17	0.000434	-0.001814	0.010286
0.018500	16	0.005408	0.007184	0.010064
0.019500	15	0.001954	-0.001182	0.011175
0.020500	15	0.003574	0.001659	0.008105
0.021500	15	0.003217	0.000080	0.010084
0.022500	18	0.005395	0.003869	0.010802
0.023500	17	0.005114	0.004185	0.011323
0.024500	17	0.003331	0.005132	0.009826
0.025500	15	0.002165	0.004185	0.010840
0.026500	15	0.001028	0.000396	0.008675
0.027500	15	0.003848	0.003237	0.010318
0.028500	20	0.003396	0.003711	0.008984
0.029500	18	0.002817	0.001659	0.011636
0.030500	15	0.002523	0.001343	0.012178
0.031500	15	0.004564	0.004185	0.012291
0.032500	15	0.003111	0.003237	0.008469
0.033500	15	0.003659	0.005447	0.009813
0.034500	20	0.005858	0.004974	0.012562
0.035500	15	0.004016	0.004500	0.008121
0.036500	17	0.003777	0.000396	0.013137
0.037500	15	0.002943	0.005763	0.011761
0.038500	15	0.002796	0.002606	0.009845
0.039500	15	0.003659	0.004185	0.010942
0.040500	22	0.001746	0.001501	0.009778
0.041500	16	0.004126	0.004974	0.012611
0.042500	15	0.004143	0.006395	0.014685
0.043500	15	0.002985	0.004185	0.011262
0.044500	15	0.001512	-0.002129	0.010260
0.045500	18	0.002080	0.001974	0.008591
0.046500	17	0.005299	0.003869	0.013104
0.047500	17	0.001139	-0.000236	0.008533
0.048500	15	0.002964	0.003869	0.010607
0.049500	15	0.001470	0.001974	0.012919
0.050500	15	0.002038	0.001974	0.011819
0.051500	15	0.004185	0.003869	0.011040
0.052500	22	0.000899	-0.001498	0.008778
0.053500	16	0.002074	-0.000236	0.009931
0.054500	15	0.004459	0.007026	0.013555
0.055500	15	0.003238	0.003237	0.011311
0.056500	15	0.001954	0.004185	0.010712
0.057500	18	0.001572	0.002606	0.009079
0.058500	17	0.006172	0.007342	0.010628
0.059500	17	0.003015	0.001343	0.010450
0.060500	15	0.000481	0.001659	0.011673
0.061500	15	0.002038	0.004500	0.012163
0.062500	15	0.003322	0.002290	0.011471
0.063500	20	0.003648	0.004974	0.010204
0.064500	17	0.000805	0.005132	0.010065
0.065500	16	0.002409	-0.000551	0.010201
0.066500	15	0.003722	0.003553	0.011177
0.067500	15	0.001639	0.001343	0.011703
0.068500	15	-0.001750	-0.000551	0.011858
0.069500	20	0.004722	0.003395	0.010195
0.070500	15	0.000586	0.000080	0.009585
0.071500	17	0.000972	0.003869	0.011096
0.072500	15	0.003133	0.002606	0.012069
0.073500	15	-0.001119	0.001027	0.010387
0.074500	15	0.001954	0.002606	0.010994
0.075500	20	0.002544	0.003237	0.012491
0.076500	17	0.001474	0.000080	0.008913
0.077500	16	-0.000649	-0.001182	0.009974
0.078500	15	0.004143	0.007973	0.010752
0.079500	15	0.001765	0.002922	0.011601
0.080500	18	0.000818	-0.001182	0.011418
0.081500	17	0.005039	0.004500	0.011378
0.082500	15	0.001091	-0.000236	0.010011
0.083500	17	-0.001312	-0.001814	0.010056
0.084500	15	0.003301	0.001974	0.011447
0.085500	15	0.003743	0.006079	0.011590
0.086500	15	0.000460	0.001343	0.011364
0.087500	22	0.004013	0.002764	0.011588
0.088500	16	0.004284	0.005447	0.011098
0.089500	15	0.000228	-0.000236	0.007988
0.090500	15	0.002165	0.002606	0.012985
0.091500	15	0.004627	-0.001182	0.012238
0.092500	18	0.003414	0.003869	0.012872
0.093500	17	0.002347	0.001974	0.011191
0.094500	15	0.002628	-0.000867	0.009760
0.095500	17	0.002978	0.005447	0.010790
0.096500	15	0.002775	0.007026	0.009357
0.097500	15	0.004374	0.001343	0.010659
0.098500	20	0.000460	-0.001656	0.012481
0.099500	17	0.003498	0.006395	0.010699
0.100500	16	0.002527	0.003395	0.009249
0.101500	15	0.002880	0.004500	0.008033
0.102500	15	0.003890	0.007973	0.010357
0.103500	15	0.002943	0.000080	0.011456
0.104500	18	-0.000006	0.004658	0.021043
0.105500	17	0.002532	0.001027	0.008421
0.106500	17	0.002718	0.000712	0.012211
0.107500	15	0.003680	0.002290	0.010876
0.108500	15	0.004332	0.006395	0.006556
0.109500	15	0.004353	0.004185	0.009463
0.110500	20	0.003364	0.004342	0.011911
0.111500	17	0.004222	0.006710	0.009381
0.112500	16	0.005250	0.004185	0.007887
0.113500	15	0.001386	0.000080	0.008736
0.114500	15	0.005574	0.003869	0.009115
0.115500	18	0.002221	0.003237	0.011768
0.116500	17	0.007361	0.006395	0.010536
0.117500	15	0.003848	0.003237	0.011058
0.118500	17	0.003944	0.004185	0.009407
0.119500	15	0.003091	0.006079	0.010416
