x 1.262626
w 46.107060
wstd 0.019212
# theta(rad)	count	mean(uA)	median(uA)	std dev(uA)
0.000500	19	0.003670	0.005447	0.011788
0.001500	16	0.005704	0.007342	0.010430
0.002500	16	0.005586	0.004816	0.012222
0.003500	15	0.003428	0.004816	0.011139
0.004500	15	0.001870	0.000396	0.010854
0.005500	17	0.007565	0.007973	0.010726
0.006500	18	0.005255	0.006710	0.010086
0.007500	19	0.003936	0.002922	0.010091
0.008500	15	0.003343	0.003553	0.009823
0.009500	15	0.002038	0.001974	0.008818
0.010500	15	0.004248	0.004185	0.009688
0.011500	16	0.003494	0.003395	0.008788
0.012500	18	0.004343	0.000554	0.011882
0.013500	16	0.003475	0.003395	0.008788
0.014500	16	0.006790	0.007815	0.009978
0.015500	15	0.003259	0.001974	0.007828
0.016500	15	0.003364	0.003869	0.009091
0.017500	17	0.004129	0.004816	0.010622
0.018500	18	0.005202	0.007500	0.011493
0.019500	19	0.005165	0.006395	0.009434
0.020500	15	0.006458	0.009236	0.008329
0.021500	15	0.001891	0.001974	0.011299
0.022500	15	0.000418	0.002922	0.009189
0.023500	16	0.005093	0.003237	0.011015
0.024500	18	0.004834	0.004500	0.011385
0.025500	16	0.001817	0.002448	0.011891
0.026500	16	0.003751	0.005132	0.011555
0.027500	15	0.005511	0.006710	0.009531
0.028500	15	0.002859	0.007658	0.008594
0.029500	19	0.002806	0.000712	0.008726
0.030500	16	0.004382	0.005290	0.011259
0.031500	19	0.002474	0.001343	0.010918
0.032500	15	0.004459	0.004185	0.010178
0.033500	15	0.000881	0.003553	0.008349
0.034500	15	0.001807	0.001659	0.011149
0.035500	16	0.004086	0.006552	0.009124
0.036500	18	0.002273	-0.000077	0.011575
0.037500	16	0.004047	0.002922	0.007791
0.038500	16	0.003869	0.003237	0.011882
0.039500	15	0.003322	0.003237	0.010452
0.040500	17	-0.001535	-0.000551	0.010136
0.041500	17	0.003944	0.006079	0.011692
0.042500	16	0.003593	0.000712	0.010136
0.043500	19	0.001477	0.000080	0.011762
0.044500	15	0.001912	0.002290	0.010931
0.045500	15	0.004269	0.009236	0.011567
0.046500	15	0.002712	0.000712	0.009798
0.047500	19	-0.001680	-0.005286	0.009989
0.048500	15	0.003049	0.002922	0.011414
0.049500	16	0.002764	0.003553	0.010565
0.050500	16	0.001344	0.001343	0.011477
0.051500	15	0.001007	0.002606	0.010427
0.052500	17	0.004538	0.007973	0.012703
0.053500	17	0.004278	0.002290	0.008804
0.054500	17	0.001400	0.000080	0.011906
0.055500	18	0.003905	0.000238	0.013687
0.056500	15	0.000334	0.003553	0.013337
0.057500	15	0.003975	0.005132	0.010856
0.058500	16	0.001324	-0.001498	0.008214
0.059500	18	0.005132	0.002922	0.013527
0.060500	15	0.004754	0.003869	0.014798
0.061500	16	-0.001813	-0.002919	0.010718
0.062500	16	0.003593	0.003553	0.013573
0.063500	15	0.005174	0.004500	0.012742
0.064500	17	0.001028	0.001659	0.009892
0.065500	17	0.001344	0.000712	0.008121
0.066500	17	0.005058	0.005763	0.009854
0.067500	18	0.001817	0.000712	0.011255
0.068500	15	0.004417	0.004500	0.011237
0.069500	15	0.003680	0.005132	0.011210
0.070500	16	0.002666	0.003237	0.012041
0.071500	18	0.002273	-0.000551	0.011862
0.072500	15	0.002249	0.002290	0.010418
0.073500	17	0.001790	0.004816	0.012299
0.074500	15	0.007237	0.003553	0.012378
0.075500	15	0.000439	0.001659	0.012444
0.076500	17	0.000285	-0.002761	0.009555
0.077500	18	0.007290	0.008920	0.011938
0.078500	16	0.001561	0.002606	0.010947
0.079500	18	0.003711	0.002448	0.010890
0.080500	15	0.002775	0.003869	0.009935
0.081500	15	0.004627	0.004500	0.011475
0.082500	16	0.004323	0.004342	0.010486
0.083500	18	0.004150	0.004342	0.015072
0.084500	15	0.002396	0.003553	0.010931
0.085500	17	0.002978	0.002922	0.009564
0.086500	15	0.004396	0.008289	0.011596
0.087500	17	0.001604	0.001343	0.011610
0.088500	17	0.003832	0.002606	0.011309
0.089500	16	0.004659	0.004816	0.010951
0.090500	16	0.002824	0.001185	0.011872
0.091500	18	0.004922	0.003553	0.009697
0.092500	15	0.001470	0.001027	0.009803
0.093500	15	0.004185	0.005763	0.011766
0.094500	16	0.003928	0.005921	0.008450
0.095500	18	0.004571	0.006395	0.012020
0.096500	16	0.001581	-0.001498	0.012344
0.097500	16	0.004422	0.006237	0.011439
0.098500	15	0.006332	0.007658	0.011864
0.099500	17	0.002569	0.002606	0.011540
0.100500	17	0.001474	0.004500	0.011452
0.101500	16	0.005744	0.007658	0.010179
0.102500	16	0.004106	0.003711	0.009785
0.103500	18	0.002922	0.002448	0.011177
0.104500	15	0.004480	0.003237	0.008518
0.105500	15	0.004459	0.009236	0.014511
0.106500	19	-0.001514	0.002290	0.015239
0.107500	15	0.002628	0.004500	0.011988
0.108500	16	0.003475	0.005605	0.011072
0.109500	16	0.002685	0.002764	0.010501
0.110500	15	0.005300	0.002922	0.009914
0.111500	17	0.005021	0.007026	0.011704
0.112500	17	0.002031	0.002606	0.011499
0.113500	16	0.006947	0.007026	0.010451
0.114500	16	0.000475	0.003080	0.008166
0.115500	18	0.007254	0.007184	0.008506
0.116500	15	0.004290	0.003553	0.011434
0.117500	16	0.004659	0.005132	0.010788
0.118500	18	0.003115	0.001974	0.010856
0.119500	15	0.004669	-0.000551	0.009858
