x 1.767677
w 45.718700
wstd 0.017184
# theta(rad)	count	mean(uA)	median(uA)	std dev(uA)
0.000500	14	0.000419	0.001501	0.007224
0.001500	14	0.001006	0.000712	0.009787
0.002500	17	0.003238	-0.001814	0.011619
0.003500	20	0.000444	0.002132	0.009375
0.004500	15	-0.000887	0.000712	0.009975
0.005500	14	-0.000190	-0.001498	0.010385
0.006500	14	0.000893	0.001817	0.008712
0.007500	15	-0.000950	0.000396	0.010122
0.008500	15	0.001007	0.004185	0.009899
0.009500	16	-0.000393	0.002290	0.009835
0.010500	14	-0.002264	-0.001972	0.010769
0.011500	14	0.000058	0.001185	0.008526
0.012500	16	-0.002761	-0.002287	0.006442
0.013500	17	0.000935	0.001343	0.007654
0.014500	19	0.001094	-0.000236	0.009045
0.015500	14	-0.000393	0.001027	0.008700
0.016500	14	-0.005060	-0.002919	0.009942
0.017500	14	-0.003076	-0.001498	0.009235
0.018500	15	0.001302	0.002606	0.011248
0.019500	17	0.000304	-0.002129	0.006906
0.020500	14	-0.002084	-0.001025	0.010415
0.021500	14	-0.001768	0.000080	0.009614
0.022500	14	0.001389	0.000554	0.010495
0.023500	17	-0.002890	0.001343	0.010238
0.024500	20	-0.002271	-0.000709	0.007247
0.025500	15	0.001891	0.001659	0.008818
0.026500	14	-0.000776	0.000869	0.008458
0.027500	14	-0.001092	0.000869	0.009321
0.028500	15	-0.001287	0.001027	0.009413
0.029500	14	-0.002512	0.000554	0.009982
0.030500	17	-0.003447	-0.003708	0.009358
0.031500	14	0.002358	0.000238	0.008618
0.032500	14	-0.003369	-0.003234	0.011473
0.033500	16	0.000712	0.001659	0.008421
0.034500	15	-0.001919	0.000712	0.008164
0.035500	20	-0.003692	-0.002761	0.009800
0.036500	15	-0.000572	0.002922	0.008249
0.037500	14	-0.001453	-0.001656	0.009095
0.038500	14	-0.003369	-0.004497	0.009054
0.039500	15	-0.001456	0.000712	0.009070
0.040500	15	0.000376	0.001343	0.009694
0.041500	16	-0.005483	-0.003234	0.012340
0.042500	14	-0.003121	-0.002761	0.009859
0.043500	14	-0.002287	-0.000551	0.008342
0.044500	16	-0.001438	-0.001814	0.010633
0.045500	17	-0.001052	0.000396	0.008607
0.046500	18	-0.002357	0.000238	0.013670
0.047500	15	-0.001876	0.002606	0.011050
0.048500	14	-0.002264	0.000396	0.010598
0.049500	14	-0.002873	-0.001025	0.009748
0.050500	15	-0.003476	-0.000867	0.009251
0.051500	15	-0.000214	-0.000551	0.010667
0.052500	16	-0.003944	0.001185	0.013592
0.053500	14	-0.003301	-0.004023	0.009069
0.054500	14	-0.005083	-0.006391	0.012071
0.055500	17	-0.000773	0.000396	0.010298
0.056500	16	-0.001655	-0.000235	0.011375
0.057500	19	-0.000650	-0.000236	0.010446
0.058500	14	0.000374	0.001343	0.010337
0.059500	14	-0.001430	0.002448	0.011520
0.060500	15	-0.003202	-0.001498	0.010494
0.061500	14	-0.004474	-0.005917	0.011974
0.062500	17	-0.000086	0.002290	0.010777
0.063500	14	0.002336	-0.000078	0.011884
0.064500	14	-0.004677	-0.005444	0.013224
0.065500	16	-0.001793	0.003080	0.010265
0.066500	15	-0.002297	-0.003076	0.010694
0.067500	20	0.000270	0.001659	0.011293
0.068500	15	-0.002339	0.000712	0.012266
0.069500	14	-0.003391	-0.006233	0.012402
0.070500	14	0.002426	0.004185	0.010625
0.071500	15	0.000229	0.004816	0.012235
0.072500	15	-0.002065	-0.006864	0.011791
0.073500	16	-0.004477	-0.005602	0.012180
0.074500	14	0.001705	0.004185	0.011465
0.075500	14	0.002652	0.004500	0.013947
0.076500	16	-0.000393	-0.002603	0.010368
0.077500	17	0.000750	0.004500	0.011113
0.078500	18	-0.001409	-0.005602	0.012990
0.079500	15	-0.000045	-0.001814	0.010973
0.080500	14	0.001502	0.001185	0.012782
0.081500	15	-0.000592	0.001343	0.012868
0.082500	14	-0.002399	-0.003392	0.013654
0.083500	15	-0.000613	0.000396	0.011789
0.084500	16	0.004501	0.004500	0.015944
0.085500	14	-0.002760	-0.003866	0.012213
0.086500	16	0.003672	0.000869	0.011764
0.087500	15	-0.000550	-0.003392	0.013222
0.088500	16	0.003968	0.008447	0.013450
0.089500	18	-0.000024	0.000396	0.012385
0.090500	15	0.001534	-0.001498	0.015199
0.091500	14	-0.000031	0.000869	0.014099
0.092500	15	0.000334	0.001974	0.013460
0.093500	14	0.001412	0.003553	0.015177
0.094500	17	-0.000439	-0.003392	0.015291
0.095500	14	0.003644	0.005763	0.011630
0.096500	14	-0.000708	-0.004497	0.014349
0.097500	16	0.000792	0.005605	0.015556
0.098500	15	0.000944	-0.001498	0.014166
0.099500	20	0.000192	-0.002603	0.013830
0.100500	15	0.002838	0.004185	0.015036
0.101500	14	0.003126	0.002606	0.015517
0.102500	14	-0.001091	-0.007180	0.015486
0.103500	15	0.000355	0.006395	0.015017
0.104500	15	-0.000803	0.001027	0.014284
0.105500	16	0.000614	-0.003234	0.016243
0.106500	14	0.003374	0.001659	0.014840
0.107500	14	0.002111	0.003553	0.012696
0.108500	17	0.001548	0.002922	0.014065
0.109500	16	0.004955	0.004816	0.014406
0.110500	18	0.002291	0.001501	0.013475
0.111500	15	-0.001182	-0.001498	0.013868
0.112500	14	0.004140	0.000870	0.014952
0.113500	15	0.000881	0.003237	0.013820
0.114500	14	0.006485	0.005921	0.013893
0.115500	15	0.001029	0.002922	0.016135
0.116500	16	0.000417	-0.002445	0.012606
0.117500	14	0.004276	0.008447	0.013104
0.118500	16	0.003258	0.001343	0.015130
0.119500	15	0.001491	0.000080	0.012845
