x 2.777778
w 45.955174
wstd 0.032251
# theta(rad)	count	mean(uA)	median(uA)	std dev(uA)
0.000500	15	-0.003181	0.000712	0.012161
0.001500	17	-0.007254	-0.009074	0.011093
0.002500	16	-0.006075	-0.006233	0.009088
0.003500	14	-0.005105	-0.005602	0.011987
0.004500	16	-0.003194	-0.000235	0.012741
0.005500	15	-0.006149	-0.004339	0.008421
0.006500	16	-0.007357	-0.002603	0.014169
0.007500	14	-0.006932	-0.003550	0.012347
0.008500	16	-0.006765	-0.007338	0.011547
0.009500	14	-0.007180	-0.007811	0.007187
0.010500	15	-0.006085	-0.004970	0.012519
0.011500	15	-0.007832	-0.008127	0.010783
0.012500	17	-0.005249	-0.002761	0.011472
0.013500	15	-0.006001	-0.008127	0.010998
0.014500	15	-0.008506	-0.009705	0.011390
0.015500	15	-0.005475	-0.003076	0.011218
0.016500	15	-0.004549	-0.004339	0.010698
0.017500	15	-0.004675	-0.001182	0.013123
0.018500	16	-0.010179	-0.008285	0.012417
0.019500	15	-0.007138	-0.004655	0.011766
0.020500	15	-0.008232	-0.003392	0.011105
0.021500	15	-0.007222	-0.009390	0.010704
0.022500	15	-0.005327	-0.005286	0.014797
0.023500	16	-0.005542	-0.002603	0.012383
0.024500	16	-0.006647	-0.007180	0.009176
0.025500	15	-0.008295	-0.004339	0.011875
0.026500	15	-0.007432	-0.002445	0.009930
0.027500	15	-0.007622	-0.007496	0.009609
0.028500	15	-0.008969	-0.007496	0.010528
0.029500	16	-0.005838	-0.005602	0.012881
0.030500	15	-0.003854	-0.004970	0.012852
0.031500	15	-0.008106	-0.008127	0.012634
0.032500	14	-0.008758	-0.006075	0.012756
0.033500	16	-0.009133	-0.009705	0.009302
0.034500	14	-0.006593	-0.003708	0.012074
0.035500	17	-0.008257	-0.008758	0.011406
0.036500	15	-0.006738	-0.002129	0.012494
0.037500	16	-0.005286	-0.001498	0.011267
0.038500	15	-0.006085	-0.004339	0.011729
0.039500	15	-0.007054	-0.004655	0.011089
0.040500	14	-0.008352	-0.007969	0.010559
0.041500	16	-0.008147	-0.007022	0.010700
0.042500	15	-0.004759	-0.000551	0.014612
0.043500	15	-0.008926	-0.009705	0.011740
0.044500	15	-0.005412	-0.005286	0.009299
0.045500	15	-0.008400	-0.003708	0.014175
0.046500	16	-0.004437	-0.004181	0.011262
0.047500	16	-0.004615	-0.004497	0.012939
0.048500	15	-0.007095	-0.009390	0.012182
0.049500	16	-0.005799	0.000554	0.011709
0.050500	14	-0.006932	-0.003392	0.010175
0.051500	15	-0.006401	-0.007811	0.011296
0.052500	16	-0.008502	-0.011599	0.010176
0.053500	15	-0.007411	-0.001814	0.011957
0.054500	15	-0.003412	-0.005917	0.013437
0.055500	15	-0.007748	-0.002445	0.012247
0.056500	15	-0.007769	-0.008758	0.008667
0.057500	16	-0.007160	-0.008285	0.009758
0.058500	15	-0.006591	-0.004339	0.010553
0.059500	15	-0.004907	-0.002761	0.012235
0.060500	17	-0.003206	-0.001182	0.009760
0.061500	14	-0.005421	-0.003234	0.010767
0.062500	15	-0.002655	0.000712	0.012735
0.063500	16	-0.006667	-0.004339	0.009757
0.064500	14	-0.008375	-0.009548	0.007795
0.065500	15	-0.003328	-0.001498	0.011738
0.066500	16	-0.005996	-0.003866	0.012654
0.067500	15	-0.006401	-0.004339	0.011065
0.068500	14	-0.005398	-0.007180	0.011895
0.069500	17	-0.001795	-0.001182	0.011518
0.070500	15	-0.005012	-0.002761	0.010958
0.071500	16	-0.006726	-0.007022	0.010901
0.072500	15	-0.005622	-0.007180	0.011171
0.073500	15	-0.003413	-0.002445	0.010491
0.074500	14	-0.003256	-0.000235	0.014613
0.075500	16	-0.006154	-0.006391	0.010495
0.076500	15	-0.004570	-0.006549	0.010198
0.077500	15	-0.004801	-0.003708	0.013076
0.078500	16	-0.004339	-0.005286	0.010075
0.079500	14	-0.005804	-0.003708	0.012319
0.080500	16	-0.003687	-0.005602	0.010683
0.081500	15	-0.001329	-0.001498	0.010002
0.082500	17	-0.002835	-0.001182	0.009364
0.083500	15	-0.005012	-0.004339	0.010023
0.084500	14	-0.005038	-0.006391	0.010548
0.085500	15	-0.000298	0.001343	0.011370
0.086500	16	-0.003253	-0.003866	0.010220
0.087500	14	-0.004542	-0.005444	0.008309
0.088500	15	-0.001771	-0.001814	0.009967
0.089500	16	-0.006213	-0.006233	0.010690
0.090500	15	-0.004907	-0.006864	0.008685
0.091500	16	-0.000570	-0.001340	0.012111
0.092500	15	-0.001140	-0.004970	0.012285
0.093500	16	-0.001557	-0.004970	0.011590
0.094500	16	-0.001695	-0.002445	0.010019
0.095500	14	-0.004632	-0.003866	0.009816
0.096500	15	-0.003286	-0.007496	0.013962
0.097500	14	-0.004023	-0.005760	0.012718
0.098500	16	-0.002701	-0.002129	0.012328
0.099500	15	-0.001056	-0.004023	0.009294
0.100500	16	-0.004911	-0.004970	0.012339
0.101500	15	-0.004739	-0.004023	0.009664
0.102500	14	-0.002467	-0.002919	0.011146
0.103500	16	-0.002879	-0.005760	0.010817
0.104500	15	-0.002360	-0.003708	0.010516
0.105500	18	0.000923	0.000870	0.010899
0.106500	14	-0.000370	-0.002129	0.009652
0.107500	15	-0.002297	-0.001498	0.012219
0.108500	14	-0.001858	-0.005602	0.009818
0.109500	16	-0.003352	-0.006549	0.013809
0.110500	14	-0.001903	-0.001656	0.010068
0.111500	16	-0.001655	-0.003234	0.008696
0.112500	16	-0.000807	-0.001498	0.013070
0.113500	14	-0.000776	0.000238	0.010944
0.114500	16	-0.003115	-0.008443	0.010977
0.115500	15	-0.000592	-0.002761	0.011779
0.116500	16	0.001877	-0.000393	0.012678
0.117500	16	-0.002642	-0.001972	0.008848
0.118500	15	0.001975	0.001027	0.008716
0.119500	14	-0.002918	-0.006075	0.010518
