x 3.030303
w 45.808733
wstd 0.044621
# theta(rad)	count	mean(uA)	median(uA)	std dev(uA)
0.000500	14	-0.006255	-0.006391	0.009755
0.001500	15	-0.006254	-0.009705	0.011331
0.002500	15	-0.005875	-0.007180	0.009730
0.003500	16	-0.008936	-0.007338	0.010155
0.004500	15	-0.006674	-0.010337	0.012218
0.005500	15	-0.008695	-0.012862	0.011623
0.006500	16	-0.008067	-0.007338	0.012940
0.007500	16	-0.002326	-0.005602	0.015310
0.008500	15	-0.005727	-0.006233	0.012557
0.009500	16	-0.007357	-0.007022	0.009159
0.010500	15	-0.009137	-0.008443	0.012605
0.011500	14	-0.009074	-0.008916	0.010453
0.012500	15	-0.010294	-0.014756	0.013344
0.013500	15	-0.005517	-0.003708	0.010354
0.014500	16	-0.004437	-0.005444	0.011393
0.015500	15	-0.009410	-0.010337	0.013741
0.016500	16	-0.008146	-0.010021	0.011460
0.017500	15	-0.007116	-0.012231	0.011966
0.018500	16	-0.007436	-0.008916	0.007978
0.019500	15	-0.008884	-0.009705	0.010476
0.020500	16	-0.004990	-0.002603	0.010440
0.021500	15	-0.010484	-0.014125	0.012460
0.022500	14	-0.008893	-0.008285	0.011521
0.023500	15	-0.010968	-0.013809	0.012300
0.024500	16	-0.007496	-0.009863	0.007395
0.025500	15	-0.006085	-0.008127	0.011444
0.026500	15	-0.006885	-0.005602	0.011614
0.027500	16	-0.005266	-0.006864	0.011536
0.028500	15	-0.005770	-0.003392	0.010203
0.029500	16	-0.011106	-0.012231	0.010359
0.030500	15	-0.008358	-0.010968	0.011199
0.031500	16	-0.001616	-0.003392	0.010664
0.032500	15	-0.010315	-0.014440	0.013431
0.033500	14	-0.008645	-0.009548	0.011387
0.034500	15	-0.007643	-0.002129	0.012853
0.035500	16	-0.007870	-0.010968	0.011684
0.036500	16	-0.012191	-0.012704	0.009961
0.037500	14	-0.006864	-0.006707	0.009591
0.038500	16	-0.007772	-0.011126	0.011523
0.039500	16	-0.004990	-0.004813	0.010806
0.040500	15	-0.010316	-0.008758	0.010221
0.041500	16	-0.010376	-0.013493	0.011190
0.042500	15	-0.007685	-0.007180	0.011368
0.043500	15	-0.010336	-0.014440	0.010828
0.044500	14	-0.010539	-0.012073	0.010177
0.045500	15	-0.007495	-0.009390	0.010879
0.046500	16	-0.007278	-0.009232	0.011134
0.047500	16	-0.010001	-0.011441	0.010492
0.048500	15	-0.009179	-0.010652	0.008881
0.049500	15	-0.010400	-0.013809	0.010159
0.050500	16	-0.007949	-0.009548	0.009439
0.051500	15	-0.009937	-0.012546	0.009996
0.052500	16	-0.005049	-0.004655	0.009978
0.053500	15	-0.010947	-0.015703	0.012570
0.054500	15	-0.010673	-0.015703	0.011753
0.055500	14	-0.006954	-0.007969	0.009559
0.056500	15	-0.009095	-0.009074	0.007582
0.057500	16	-0.008324	-0.012073	0.010069
0.058500	16	-0.007910	-0.009390	0.011353
0.059500	15	-0.009284	-0.011284	0.010597
0.060500	15	-0.006085	-0.008758	0.010112
0.061500	16	-0.007042	-0.008443	0.009973
0.062500	15	-0.009094	-0.015072	0.013940
0.063500	15	-0.004191	-0.005917	0.008042
0.064500	17	-0.010745	-0.013493	0.010712
0.065500	14	-0.007383	-0.006549	0.009875
0.066500	14	-0.008961	-0.011284	0.010844
0.067500	16	-0.010100	-0.010810	0.009076
0.068500	15	-0.007959	-0.004655	0.009773
0.069500	16	-0.007298	-0.006549	0.009879
0.070500	15	-0.004739	-0.005917	0.009167
0.071500	15	-0.010105	-0.011284	0.010778
0.072500	16	-0.009607	-0.009548	0.011075
0.073500	15	-0.005307	-0.005286	0.010435
0.074500	15	-0.007053	-0.007180	0.011607
0.075500	17	-0.009891	-0.012862	0.010009
0.076500	14	-0.006413	-0.005917	0.009177
0.077500	15	-0.004444	-0.004023	0.012121
0.078500	15	-0.009726	-0.012546	0.011261
0.079500	15	-0.007538	-0.004339	0.009316
0.080500	15	-0.008821	-0.005286	0.011942
0.081500	16	-0.009606	-0.009548	0.010496
0.082500	15	-0.003855	-0.004655	0.009352
0.083500	16	-0.005503	-0.005602	0.010405
0.084500	15	-0.008169	-0.009390	0.012473
0.085500	15	-0.007979	-0.005917	0.011068
0.086500	16	-0.007022	-0.008127	0.009275
0.087500	15	-0.005412	-0.004023	0.010273
0.088500	15	-0.009326	-0.010337	0.009966
0.089500	15	-0.004949	-0.009390	0.010678
0.090500	16	-0.004931	-0.002919	0.008033
0.091500	14	-0.006052	-0.005286	0.010311
0.092500	16	-0.008581	-0.008758	0.010151
0.093500	15	-0.003686	-0.001814	0.009299
0.094500	16	-0.003885	-0.005602	0.008906
0.095500	16	-0.004358	-0.003866	0.012338
0.096500	14	-0.006210	-0.009390	0.011229
0.097500	16	-0.007081	-0.007654	0.010225
0.098500	15	-0.004465	-0.005602	0.008769
0.099500	16	-0.005424	-0.004181	0.010468
0.100500	14	-0.007293	-0.006233	0.007710
0.101500	16	-0.005463	-0.005286	0.007879
0.102500	14	-0.004541	-0.006075	0.011346
0.103500	16	-0.007831	-0.006391	0.010207
0.104500	16	-0.005700	-0.004497	0.010227
0.105500	15	-0.005033	-0.005917	0.007631
0.106500	16	-0.005601	-0.003866	0.008404
0.107500	14	-0.007112	-0.011126	0.010818
0.108500	16	-0.002701	-0.002287	0.009354
0.109500	15	-0.004991	-0.007180	0.009443
0.110500	16	-0.006193	-0.008127	0.008853
0.111500	14	-0.004068	-0.006549	0.008793
0.112500	16	-0.003313	-0.001656	0.007996
0.113500	14	-0.003617	-0.004813	0.007423
0.114500	17	-0.005249	-0.008443	0.009708
0.115500	15	-0.003076	-0.002445	0.009316
0.116500	15	-0.002929	-0.003708	0.008323
0.117500	16	-0.003944	-0.007338	0.010795
0.118500	14	-0.003595	-0.000867	0.009561
0.119500	16	-0.005996	-0.005128	0.009179
