x 3.535354
w 45.593386
wstd 0.037135
# theta(rad)	count	mean(uA)	median(uA)	std dev(uA)
0.000500	15	-0.006422	-0.006233	0.014204
0.001500	17	-0.009259	-0.004655	0.012553
0.002500	16	-0.008857	-0.009390	0.013446
0.003500	15	-0.008400	-0.005602	0.013283
0.004500	17	-0.008387	-0.006549	0.013579
0.005500	15	-0.008337	-0.008443	0.011044
0.006500	14	-0.010810	-0.013178	0.014151
0.007500	15	-0.006338	-0.005602	0.011867
0.008500	16	-0.006232	-0.006233	0.015260
0.009500	14	-0.009412	-0.007338	0.013749
0.010500	14	-0.009164	-0.005286	0.013586
0.011500	16	-0.008600	-0.007811	0.011290
0.012500	17	-0.008405	-0.011915	0.012671
0.013500	15	-0.011578	-0.013809	0.012341
0.014500	17	-0.007811	-0.005602	0.014471
0.015500	16	-0.010336	-0.010968	0.013855
0.016500	14	-0.009367	-0.009074	0.012353
0.017500	15	-0.007621	-0.008758	0.014386
0.018500	15	-0.008274	-0.010652	0.011087
0.019500	15	-0.008863	-0.011284	0.014553
0.020500	14	-0.007698	-0.007969	0.012856
0.021500	15	-0.010084	-0.012862	0.014433
0.022500	18	-0.010740	-0.010810	0.011699
0.023500	15	-0.006696	-0.004970	0.010751
0.024500	15	-0.007664	-0.007180	0.012465
0.025500	17	-0.008814	-0.011599	0.013800
0.026500	15	-0.009747	-0.010652	0.011724
0.027500	14	-0.008329	-0.007969	0.013350
0.028500	16	-0.009113	-0.007496	0.010111
0.029500	15	-0.007811	-0.008758	0.012349
0.030500	14	-0.006932	-0.009390	0.012588
0.031500	14	-0.008330	-0.009232	0.012610
0.032500	18	-0.013300	-0.016019	0.011686
0.033500	16	-0.007870	-0.003392	0.012942
0.034500	15	-0.008990	-0.009074	0.011739
0.035500	17	-0.009798	-0.010968	0.012201
0.036500	15	-0.011536	-0.017597	0.011633
0.037500	14	-0.008036	-0.010968	0.012023
0.038500	15	-0.006864	-0.005917	0.013093
0.039500	16	-0.007791	-0.009548	0.015037
0.040500	14	-0.008781	-0.009705	0.011550
0.041500	14	-0.011080	-0.016019	0.011963
0.042500	17	-0.010188	-0.012231	0.010597
0.043500	17	-0.010466	-0.014440	0.011689
0.044500	14	-0.009637	-0.012388	0.012117
0.045500	17	-0.010578	-0.011915	0.012767
0.046500	16	-0.007022	-0.009863	0.011798
0.047500	14	-0.009773	-0.012388	0.011432
0.048500	15	-0.009389	-0.011284	0.014137
0.049500	16	-0.005443	-0.007496	0.014163
0.050500	14	-0.012163	-0.012388	0.009955
0.051500	14	-0.008713	-0.011441	0.012956
0.052500	16	-0.010948	-0.011757	0.010084
0.053500	17	-0.008944	-0.010337	0.011725
0.054500	15	-0.010715	-0.008758	0.010272
0.055500	15	-0.007453	-0.008127	0.012424
0.056500	17	-0.009835	-0.012231	0.011457
0.057500	15	-0.009347	-0.008127	0.010567
0.058500	14	-0.006638	-0.007654	0.011441
0.059500	16	-0.010751	-0.013651	0.009742
0.060500	15	-0.007011	-0.009390	0.012664
0.061500	14	-0.008172	-0.007969	0.009876
0.062500	14	-0.009344	-0.011915	0.011014
0.063500	18	-0.008179	-0.007338	0.011703
0.064500	16	-0.010119	-0.013178	0.010166
0.065500	15	-0.010589	-0.011915	0.009628
0.066500	16	-0.007712	-0.007338	0.011191
0.067500	16	-0.007712	-0.008758	0.011094
0.068500	14	-0.010742	-0.010495	0.011044
0.069500	16	-0.005838	-0.008601	0.009363
0.070500	15	-0.006127	-0.006864	0.011847
0.071500	14	-0.009728	-0.010021	0.011410
0.072500	14	-0.007811	-0.008443	0.009284
0.073500	16	-0.006825	-0.007654	0.009843
0.074500	18	-0.007934	-0.008443	0.010046
0.075500	14	-0.008713	-0.009390	0.009670
0.076500	17	-0.007013	-0.008127	0.010469
0.077500	15	-0.006212	-0.005286	0.009274
0.078500	15	-0.009095	-0.011599	0.011122
0.079500	15	-0.007664	-0.008758	0.009132
0.080500	16	-0.005680	-0.004339	0.010172
0.081500	14	-0.006278	-0.006707	0.010123
0.082500	14	-0.008668	-0.012388	0.008334
0.083500	16	-0.007259	-0.006864	0.009028
0.084500	16	-0.004832	-0.004655	0.009696
0.085500	16	-0.006529	-0.008127	0.010761
0.086500	15	-0.007348	-0.007496	0.009126
0.087500	17	-0.005304	-0.004655	0.010780
0.088500	15	-0.008043	-0.009390	0.008857
0.089500	15	-0.006675	-0.007811	0.008779
0.090500	15	-0.005412	-0.004339	0.009404
0.091500	15	-0.005244	-0.005917	0.009602
0.092500	14	-0.007270	-0.008916	0.009261
0.093500	16	-0.004733	-0.006233	0.012367
0.094500	15	-0.004886	-0.007496	0.010163
0.095500	17	-0.008275	-0.010652	0.007339
0.096500	15	-0.005938	-0.004339	0.009748
0.097500	16	-0.006391	-0.007654	0.008360
0.098500	15	-0.005833	-0.004655	0.009831
0.099500	15	-0.004591	-0.001814	0.011543
0.100500	16	-0.006095	-0.007338	0.008922
0.101500	15	-0.005580	-0.001814	0.010631
0.102500	14	-0.005083	-0.007496	0.008119
0.103500	16	-0.005838	-0.005602	0.008491
0.104500	15	-0.006211	-0.009074	0.012127
0.105500	16	-0.003826	-0.003234	0.011565
0.106500	15	-0.002718	-0.001182	0.009711
0.107500	17	-0.006214	-0.008127	0.008599
0.108500	15	-0.005517	-0.004655	0.010552
0.109500	15	-0.006191	-0.008127	0.010380
0.110500	15	-0.002255	-0.003392	0.010292
0.111500	16	-0.003826	-0.003392	0.010322
0.112500	14	-0.002941	-0.001025	0.009458
0.113500	14	-0.003414	-0.001656	0.009205
0.114500	17	-0.004599	-0.006233	0.010733
0.115500	15	-0.004170	-0.004339	0.011107
0.116500	16	-0.002385	-0.003234	0.009744
0.117500	15	-0.003665	-0.005917	0.011231
0.118500	16	-0.003569	-0.004181	0.009457
0.119500	15	-0.002403	-0.003708	0.008446
