x 3.787879
w 45.808223
wstd 0.021554
# theta(rad)	count	mean(uA)	median(uA)	std dev(uA)
0.000500	17	-0.006307	-0.006864	0.010818
0.001500	15	-0.006590	-0.006233	0.010877
0.002500	15	-0.004381	-0.004970	0.012718
0.003500	14	-0.007089	-0.006233	0.011967
0.004500	14	-0.005940	-0.005128	0.012018
0.005500	15	-0.003833	-0.003392	0.012018
0.006500	18	-0.005303	-0.008916	0.011271
0.007500	16	-0.005128	-0.004813	0.013208
0.008500	15	-0.008253	-0.008443	0.010699
0.009500	14	-0.008149	-0.008758	0.011529
0.010500	15	-0.006948	-0.007496	0.010089
0.011500	17	-0.004803	-0.003076	0.011170
0.012500	15	-0.005917	-0.006864	0.008668
0.013500	15	-0.003707	-0.005917	0.013465
0.014500	14	-0.009818	-0.010652	0.011333
0.015500	14	-0.007834	-0.007022	0.010707
0.016500	18	-0.006776	-0.004655	0.011010
0.017500	15	-0.006359	-0.007496	0.009284
0.018500	16	-0.006785	-0.006864	0.009697
0.019500	15	-0.005012	-0.000867	0.012392
0.020500	14	-0.007338	-0.009232	0.009679
0.021500	15	-0.008948	-0.009705	0.010206
0.022500	17	-0.006827	-0.009390	0.010699
0.023500	15	-0.007958	-0.008127	0.009122
0.024500	15	-0.004044	-0.001182	0.010473
0.025500	14	-0.009592	-0.011126	0.010036
0.026500	14	-0.006233	-0.007654	0.009193
0.027500	18	-0.009653	-0.008443	0.012415
0.028500	15	-0.008990	-0.010021	0.011731
0.029500	16	-0.007673	-0.005444	0.011025
0.030500	15	-0.006422	-0.004970	0.009809
0.031500	14	-0.007022	-0.007654	0.010108
0.032500	16	-0.009488	-0.007811	0.012317
0.033500	16	-0.008245	-0.008758	0.011058
0.034500	15	-0.009074	-0.009705	0.010643
0.035500	15	-0.008127	-0.006864	0.010603
0.036500	14	-0.005353	-0.005602	0.012140
0.037500	14	-0.005037	-0.008916	0.013849
0.038500	18	-0.009319	-0.010021	0.013449
0.039500	16	-0.007318	-0.005917	0.009605
0.040500	15	-0.009432	-0.010968	0.011602
0.041500	15	-0.010442	-0.015072	0.013137
0.042500	14	-0.005376	-0.007338	0.007993
0.043500	16	-0.004082	-0.005760	0.012013
0.044500	16	-0.007910	-0.007654	0.010133
0.045500	15	-0.010610	-0.010337	0.012642
0.046500	15	-0.007075	-0.010652	0.010543
0.047500	14	-0.007879	-0.006707	0.009364
0.048500	15	-0.009284	-0.010652	0.009266
0.049500	17	-0.008015	-0.010652	0.011100
0.050500	16	-0.006134	-0.002129	0.012507
0.051500	15	-0.008947	-0.006864	0.012125
0.052500	15	-0.008106	-0.008758	0.010445
0.053500	14	-0.010720	-0.010968	0.009424
0.054500	16	-0.005661	-0.005444	0.011179
0.055500	16	-0.007436	-0.007811	0.011527
0.056500	15	-0.007811	-0.008127	0.010174
0.057500	15	-0.007453	-0.001814	0.011083
0.058500	14	-0.009434	-0.010652	0.012407
0.059500	15	-0.010084	-0.005286	0.011231
0.060500	17	-0.008015	-0.010652	0.010044
0.061500	16	-0.007515	-0.005444	0.010904
0.062500	15	-0.007075	-0.007180	0.010349
0.063500	15	-0.008443	-0.009705	0.008262
0.064500	15	-0.008927	-0.008127	0.008518
0.065500	15	-0.008316	-0.010652	0.010014
0.066500	16	-0.008561	-0.009390	0.010389
0.067500	15	-0.009116	-0.010021	0.007820
0.068500	15	-0.007495	-0.008127	0.010252
0.069500	14	-0.006323	-0.002919	0.010662
0.070500	15	-0.010568	-0.013178	0.010025
0.071500	17	-0.008387	-0.009074	0.010344
0.072500	16	-0.008738	-0.009863	0.009636
0.073500	15	-0.005370	-0.004339	0.010121
0.074500	15	-0.005601	-0.004339	0.011500
0.075500	15	-0.009242	-0.009390	0.010210
0.076500	15	-0.007074	-0.006233	0.010716
0.077500	17	-0.006678	-0.006549	0.010895
0.078500	14	-0.009209	-0.009705	0.007712
0.079500	15	-0.007285	-0.007811	0.009299
0.080500	14	-0.005038	-0.004813	0.009077
0.081500	15	-0.010315	-0.010337	0.010586
0.082500	17	-0.009204	-0.008758	0.009799
0.083500	16	-0.007693	-0.006233	0.009250
0.084500	15	-0.005812	-0.009390	0.009218
0.085500	15	-0.009347	-0.008127	0.011091
0.086500	15	-0.009179	-0.008758	0.010574
0.087500	15	-0.006212	-0.008758	0.008201
0.088500	17	-0.005620	-0.001814	0.011271
0.089500	14	-0.007450	-0.006864	0.010512
0.090500	15	-0.007053	-0.013493	0.011498
0.091500	14	-0.010179	-0.014282	0.009987
0.092500	15	-0.004507	-0.006549	0.008611
0.093500	17	-0.006994	-0.004655	0.010859
0.094500	16	-0.007436	-0.006391	0.011878
0.095500	15	-0.006380	-0.004655	0.007239
0.096500	15	-0.008506	-0.009705	0.009581
0.097500	15	-0.006022	-0.007180	0.011231
0.098500	15	-0.006296	-0.007811	0.010808
0.099500	17	-0.004227	-0.006864	0.008595
0.100500	14	-0.006774	-0.009232	0.009590
0.101500	15	-0.004907	-0.005286	0.010733
0.102500	14	-0.009344	-0.009863	0.012009
0.103500	15	-0.006064	-0.007496	0.008351
0.104500	18	-0.004742	-0.006075	0.009479
0.105500	15	-0.008316	-0.011915	0.013585
0.106500	15	-0.006591	-0.008758	0.007274
0.107500	15	-0.006001	-0.007180	0.010083
0.108500	15	-0.007748	-0.008443	0.008885
0.109500	17	-0.004747	-0.001814	0.010839
0.110500	15	-0.005433	-0.007180	0.010442
0.111500	14	-0.006819	-0.006075	0.010971
0.112500	15	-0.002381	-0.002445	0.011936
0.113500	14	-0.010224	-0.010968	0.008884
0.114500	18	-0.004461	-0.010021	0.011128
0.115500	15	-0.006233	-0.005286	0.009156
0.116500	15	-0.005012	-0.004970	0.010400
0.117500	15	-0.006485	-0.009705	0.010836
0.118500	15	-0.007180	-0.011915	0.010900
0.119500	16	-0.001655	0.000712	0.009576
