x 4.040404
w 45.890900
wstd 0.005766
# theta(rad)	count	mean(uA)	median(uA)	std dev(uA)
0.000500	14	-0.007360	-0.007338	0.013009
0.001500	14	-0.003527	-0.005128	0.010073
0.002500	14	-0.007383	-0.009390	0.010873
0.003500	17	-0.005639	-0.002761	0.010535
0.004500	18	-0.008618	-0.008443	0.010428
0.005500	14	-0.004654	-0.002129	0.012374
0.006500	14	-0.004699	-0.003866	0.009345
0.007500	14	-0.007946	-0.006707	0.012987
0.008500	14	-0.005308	-0.009074	0.013417
0.009500	20	-0.003470	-0.004339	0.014220
0.010500	15	-0.007748	-0.007180	0.010467
0.011500	14	-0.008736	-0.009074	0.011184
0.012500	14	-0.006481	-0.006391	0.012134
0.013500	14	-0.005083	-0.005444	0.011517
0.014500	17	-0.005731	-0.004655	0.010935
0.015500	18	-0.006548	-0.006549	0.010516
0.016500	14	-0.008262	-0.007969	0.013426
0.017500	14	-0.004090	-0.003234	0.013918
0.018500	14	-0.009096	-0.006707	0.011104
0.019500	14	-0.004835	-0.007180	0.010643
0.020500	20	-0.004228	-0.004023	0.012610
0.021500	15	-0.006948	-0.005917	0.010245
0.022500	14	-0.006661	-0.005917	0.011537
0.023500	14	-0.008352	-0.009390	0.012813
0.024500	14	-0.006120	-0.009863	0.016464
0.025500	14	-0.005827	-0.006707	0.010442
0.026500	21	-0.009690	-0.008758	0.016231
0.027500	14	-0.009525	-0.012073	0.011680
0.028500	14	-0.001678	-0.000709	0.012630
0.029500	14	-0.010224	-0.010179	0.010780
0.030500	14	-0.008059	-0.010968	0.011216
0.031500	14	-0.007743	-0.008916	0.012460
0.032500	21	-0.005887	-0.008127	0.011205
0.033500	14	-0.006120	-0.007496	0.010108
0.034500	14	-0.007653	-0.007022	0.012216
0.035500	14	-0.005511	-0.004497	0.013169
0.036500	14	-0.008352	-0.010021	0.012436
0.037500	21	-0.008052	-0.008758	0.012065
0.038500	14	-0.008082	-0.009232	0.010914
0.039500	14	-0.008082	-0.008127	0.013500
0.040500	14	-0.008487	-0.007022	0.012386
0.041500	14	-0.006909	-0.006549	0.012690
0.042500	14	-0.006841	-0.009548	0.013122
0.043500	21	-0.006473	-0.004970	0.010843
0.044500	14	-0.007112	-0.007969	0.009183
0.045500	14	-0.008036	-0.006075	0.012726
0.046500	14	-0.005308	-0.002129	0.011108
0.047500	14	-0.008285	-0.007811	0.012752
0.048500	17	-0.010708	-0.012546	0.013228
0.049500	18	-0.007478	-0.004970	0.009868
0.050500	14	-0.005646	-0.004970	0.011891
0.051500	14	-0.005488	-0.007811	0.013259
0.052500	14	-0.007428	-0.007811	0.009835
0.053500	14	-0.006413	-0.008601	0.012558
0.054500	20	-0.009579	-0.009390	0.009307
0.055500	15	-0.006001	-0.008127	0.012824
0.056500	14	-0.006977	-0.005444	0.013180
0.057500	14	-0.007247	-0.007022	0.008989
0.058500	14	-0.005331	-0.005128	0.011444
0.059500	17	-0.011358	-0.010337	0.012997
0.060500	18	-0.004900	-0.006864	0.010657
0.061500	14	-0.007518	-0.009074	0.012689
0.062500	14	-0.006458	-0.008443	0.011666
0.063500	14	-0.007991	-0.008916	0.009750
0.064500	14	-0.006571	-0.006391	0.011167
0.065500	20	-0.007874	-0.008601	0.010690
0.066500	15	-0.005096	-0.003708	0.011321
0.067500	14	-0.004496	-0.006391	0.013072
0.068500	14	-0.008285	-0.007654	0.009633
0.069500	14	-0.005849	-0.006391	0.010599
0.070500	17	-0.009501	-0.011915	0.009321
0.071500	18	-0.006759	-0.005917	0.011740
0.072500	14	-0.008645	-0.011599	0.011671
0.073500	14	-0.004429	-0.005286	0.009451
0.074500	14	-0.006278	-0.006233	0.009630
0.075500	14	-0.005489	-0.005602	0.009765
0.076500	20	-0.007827	-0.005760	0.009400
0.077500	15	-0.006443	-0.004339	0.011182
0.078500	14	-0.009232	-0.008758	0.011213
0.079500	14	-0.005601	-0.006391	0.012456
0.080500	14	-0.006007	-0.001498	0.009582
0.081500	17	-0.005416	-0.004023	0.010668
0.082500	18	-0.006759	-0.008285	0.008018
0.083500	14	-0.009006	-0.008443	0.008360
0.084500	14	-0.006864	-0.005128	0.009283
0.085500	14	-0.007405	-0.005602	0.009539
0.086500	14	-0.004249	-0.002919	0.009440
0.087500	20	-0.006722	-0.008285	0.009870
0.088500	15	-0.001561	-0.001498	0.009958
0.089500	14	-0.006932	-0.007654	0.008235
0.090500	14	-0.009457	-0.008601	0.012410
0.091500	14	-0.002039	-0.002761	0.012574
0.092500	17	-0.005156	-0.004655	0.011228
0.093500	18	-0.004795	-0.005128	0.010396
0.094500	14	-0.007947	-0.004970	0.009738
0.095500	14	-0.007202	-0.006707	0.009301
0.096500	14	-0.003482	-0.001340	0.010471
0.097500	14	-0.003730	-0.003550	0.012088
0.098500	20	-0.005933	-0.003234	0.009387
0.099500	15	-0.001056	-0.002761	0.009690
0.100500	14	-0.004158	-0.004970	0.011465
0.101500	14	-0.008690	-0.010652	0.011918
0.102500	14	-0.003504	-0.005286	0.011931
0.103500	14	-0.003978	-0.001814	0.012735
0.104500	17	-0.004840	-0.002445	0.012864
0.105500	18	-0.003251	-0.004181	0.011203
0.106500	14	-0.006255	-0.002761	0.013507
0.107500	14	-0.003595	-0.004813	0.009847
0.108500	14	-0.008104	-0.007180	0.010052
0.109500	14	-0.006255	-0.006075	0.014403
0.110500	20	-0.003234	-0.003392	0.011709
0.111500	15	-0.003771	-0.001498	0.009871
0.112500	14	-0.004271	0.000080	0.011659
0.113500	14	-0.004993	-0.004813	0.009655
0.114500	14	-0.006684	-0.008601	0.011194
0.115500	17	-0.006399	-0.005917	0.015153
0.116500	18	-0.004900	-0.004813	0.013391
0.117500	14	-0.005444	-0.005760	0.008729
0.118500	14	-0.000122	-0.001340	0.012054
0.119500	14	-0.006142	-0.003708	0.011856
