x 4.545455
w 45.986088
wstd 0.003275
# theta(rad)	count	mean(uA)	median(uA)	std dev(uA)
0.000500	15	-0.007306	-0.006549	0.012389
0.001500	15	-0.004444	-0.001814	0.010291
0.002500	24	-0.006535	-0.004970	0.011510
0.003500	15	-0.005075	-0.002761	0.007624
0.004500	15	-0.006548	-0.005602	0.011594
0.005500	15	-0.007369	-0.005602	0.010833
0.006500	15	-0.008337	-0.005602	0.013067
0.007500	15	-0.006527	-0.005602	0.010849
0.008500	21	-0.005060	-0.006549	0.012228
0.009500	15	-0.010884	-0.012231	0.011292
0.010500	15	-0.009495	-0.012546	0.009578
0.011500	15	-0.005622	0.001659	0.011677
0.012500	15	-0.008127	-0.010652	0.011685
0.013500	24	-0.007864	-0.009863	0.012027
0.014500	15	-0.007095	-0.014440	0.011561
0.015500	15	-0.006085	-0.004339	0.010756
0.016500	15	-0.006085	-0.009390	0.009309
0.017500	15	-0.009600	-0.005286	0.009545
0.018500	15	-0.007116	-0.008127	0.010986
0.019500	21	-0.007165	-0.005286	0.010848
0.020500	15	-0.008968	-0.010337	0.011771
0.021500	15	-0.006717	-0.006233	0.009122
0.022500	15	-0.006717	-0.010652	0.012083
0.023500	15	-0.010905	-0.010652	0.010253
0.024500	24	-0.005838	-0.006233	0.012084
0.025500	15	-0.006674	-0.010021	0.013731
0.026500	15	-0.007685	-0.005917	0.010939
0.027500	15	-0.007600	-0.012862	0.012125
0.028500	15	-0.009768	-0.009390	0.008816
0.029500	15	-0.008569	-0.011284	0.012587
0.030500	21	-0.009209	-0.010337	0.011001
0.031500	15	-0.008211	-0.007811	0.010883
0.032500	15	-0.007095	-0.012546	0.012842
0.033500	15	-0.004086	-0.001498	0.010641
0.034500	15	-0.006885	-0.010652	0.009935
0.035500	15	-0.010315	-0.013178	0.013099
0.036500	24	-0.005996	-0.006233	0.012782
0.037500	15	-0.008779	-0.013493	0.012374
0.038500	15	-0.005349	-0.006864	0.011334
0.039500	15	-0.005728	-0.009705	0.010833
0.040500	15	-0.009347	-0.012546	0.011468
0.041500	15	-0.007621	-0.011284	0.013074
0.042500	21	-0.008833	-0.012862	0.012371
0.043500	15	-0.005959	-0.008127	0.012833
0.044500	15	-0.009410	-0.013178	0.011416
0.045500	15	-0.006738	-0.009705	0.011016
0.046500	15	-0.005264	-0.007496	0.011696
0.047500	24	-0.008876	-0.012704	0.011824
0.048500	15	-0.004549	-0.007496	0.012221
0.049500	15	-0.009452	-0.014125	0.011099
0.050500	15	-0.008758	-0.009705	0.012798
0.051500	15	-0.004275	-0.003392	0.010504
0.052500	15	-0.003854	-0.005917	0.011596
0.053500	21	-0.009374	-0.010652	0.009845
0.054500	15	-0.008127	-0.013809	0.012005
0.055500	15	-0.005201	-0.009390	0.011255
0.056500	15	-0.005327	-0.009390	0.012913
0.057500	15	-0.006990	-0.010021	0.009073
0.058500	15	-0.007832	-0.010968	0.010844
0.059500	24	-0.005654	-0.005760	0.011214
0.060500	15	-0.006801	-0.008758	0.010767
0.061500	15	-0.007348	-0.009705	0.014321
0.062500	15	-0.007432	-0.009705	0.012398
0.063500	15	-0.002550	-0.003076	0.011190
0.064500	15	-0.006338	-0.008758	0.010457
0.065500	21	-0.008442	-0.010968	0.011225
0.066500	15	-0.007516	-0.009074	0.011980
0.067500	15	-0.008779	-0.010021	0.012606
0.068500	15	-0.004865	-0.008443	0.010353
0.069500	15	-0.008632	-0.010968	0.009941
0.070500	24	-0.005391	-0.009074	0.012222
0.071500	15	-0.007306	-0.007180	0.009594
0.072500	15	-0.007369	-0.011284	0.011597
0.073500	15	-0.007811	-0.010652	0.011597
0.074500	15	-0.007600	-0.009390	0.012513
0.075500	15	-0.006569	-0.009074	0.010769
0.076500	21	-0.007616	-0.010652	0.009458
0.077500	15	-0.005791	-0.008443	0.011632
0.078500	15	-0.008569	-0.011599	0.010104
0.079500	15	-0.005117	-0.003392	0.008852
0.080500	15	-0.011367	-0.011915	0.013004
0.081500	15	-0.005159	-0.009074	0.014208
0.082500	24	-0.006049	-0.007496	0.009470
0.083500	15	-0.007706	-0.008127	0.009785
0.084500	15	-0.004991	-0.009705	0.011679
0.085500	15	-0.006169	-0.010021	0.011783
0.086500	15	-0.005264	-0.008758	0.012767
0.087500	15	-0.008232	-0.007180	0.010031
0.088500	21	-0.004579	-0.005602	0.009886
0.089500	15	-0.007369	-0.009705	0.010633
0.090500	15	-0.003602	-0.005602	0.008394
0.091500	15	-0.007475	-0.008758	0.007844
0.092500	15	-0.009095	-0.010021	0.011475
0.093500	24	-0.004917	-0.008758	0.014075
0.094500	15	-0.004170	-0.000551	0.009759
0.095500	15	-0.006527	-0.010337	0.008863
0.096500	15	-0.007706	-0.007496	0.009620
0.097500	15	-0.006990	-0.012546	0.013359
0.098500	15	-0.006212	-0.006864	0.011489
0.099500	21	-0.006188	-0.008443	0.010946
0.100500	15	-0.005686	-0.006233	0.010903
0.101500	15	-0.004402	-0.005917	0.010344
0.102500	15	-0.007685	-0.006549	0.009346
0.103500	15	-0.005896	-0.005286	0.012499
0.104500	15	-0.006654	-0.003392	0.010632
0.105500	24	-0.006759	-0.007969	0.012408
0.106500	15	-0.006296	-0.010021	0.010261
0.107500	15	-0.004928	-0.005917	0.011095
0.108500	15	-0.004275	-0.004339	0.011196
0.109500	15	-0.010421	-0.006549	0.010744
0.110500	15	-0.005370	-0.001814	0.013671
0.111500	21	-0.006173	-0.003392	0.011008
0.112500	15	-0.007874	-0.009390	0.011318
0.113500	15	-0.005328	-0.005917	0.009037
0.114500	15	-0.005391	-0.008443	0.011979
0.115500	15	-0.006969	-0.005286	0.009955
0.116500	24	-0.006364	-0.002287	0.012851
0.117500	15	-0.008274	-0.004655	0.020536
0.118500	15	-0.004780	-0.004655	0.012548
0.119500	15	-0.006654	-0.007496	0.011636
