x 4.797980
w 46.029119
wstd 0.024840
# theta(rad)	count	mean(uA)	median(uA)	std dev(uA)
0.000500	15	-0.008169	-0.004970	0.013222
0.001500	15	-0.006128	-0.005286	0.011764
0.002500	16	-0.007061	-0.009074	0.014325
0.003500	19	-0.006847	-0.008443	0.011165
0.004500	17	-0.008090	-0.008127	0.012213
0.005500	18	-0.008670	-0.009548	0.013799
0.006500	15	-0.008232	-0.008127	0.011296
0.007500	15	-0.007538	-0.006233	0.011602
0.008500	18	-0.005496	-0.006391	0.011078
0.009500	16	-0.006548	-0.007811	0.014211
0.010500	16	-0.007534	-0.009074	0.015492
0.011500	15	-0.012714	-0.013178	0.010760
0.012500	15	-0.006191	-0.004655	0.013367
0.013500	15	-0.009284	-0.007811	0.009743
0.014500	17	-0.009445	-0.010021	0.013377
0.015500	19	-0.004588	-0.004023	0.012878
0.016500	17	-0.011228	-0.011284	0.012006
0.017500	17	-0.011005	-0.011599	0.011947
0.018500	15	-0.006927	-0.006864	0.012494
0.019500	17	-0.007793	-0.005286	0.010990
0.020500	16	-0.009587	-0.013967	0.012428
0.021500	17	-0.008925	-0.007811	0.012957
0.022500	15	-0.007369	-0.010021	0.012149
0.023500	15	-0.010273	-0.009705	0.014682
0.024500	15	-0.010947	-0.009705	0.011192
0.025500	16	-0.007969	-0.006391	0.011970
0.026500	19	-0.008576	-0.004023	0.009741
0.027500	17	-0.009315	-0.008758	0.013427
0.028500	16	-0.010652	-0.010968	0.010927
0.029500	17	-0.010058	-0.012546	0.013396
0.030500	17	-0.007570	-0.005917	0.011805
0.031500	16	-0.010770	-0.010179	0.011999
0.032500	16	-0.010632	-0.011284	0.010689
0.033500	16	-0.010770	-0.009705	0.015104
0.034500	15	-0.008695	-0.007496	0.014468
0.035500	15	-0.009263	-0.007496	0.009962
0.036500	15	-0.009137	-0.011599	0.011679
0.037500	17	-0.008647	-0.005286	0.010205
0.038500	19	-0.010403	-0.005917	0.010772
0.039500	16	-0.008857	-0.007338	0.010737
0.040500	18	-0.010424	-0.009705	0.010359
0.041500	15	-0.010505	-0.009705	0.012908
0.042500	17	-0.007161	-0.004655	0.011796
0.043500	16	-0.012270	-0.014282	0.011323
0.044500	16	-0.013947	-0.010810	0.009784
0.045500	16	-0.007989	-0.005760	0.012244
0.046500	15	-0.007895	-0.009390	0.013724
0.047500	15	-0.010778	-0.011915	0.012309
0.048500	16	-0.010692	-0.010337	0.010040
0.049500	19	-0.010104	-0.008127	0.011181
0.050500	16	-0.010021	-0.007811	0.012039
0.051500	16	-0.008699	-0.005444	0.013145
0.052500	18	-0.010968	-0.010179	0.011180
0.053500	17	-0.007291	-0.010021	0.011250
0.054500	16	-0.008561	-0.007022	0.013135
0.055500	15	-0.008758	-0.007180	0.011317
0.056500	17	-0.013512	-0.014125	0.011740
0.057500	15	-0.008905	-0.008127	0.012603
0.058500	15	-0.006212	-0.003708	0.011190
0.059500	15	-0.007306	-0.006549	0.011884
0.060500	17	-0.010225	-0.011599	0.009494
0.061500	18	-0.006952	-0.004023	0.011096
0.062500	17	-0.008554	-0.012546	0.011478
0.063500	16	-0.009330	-0.007654	0.011272
0.064500	17	-0.009315	-0.010337	0.011346
0.065500	17	-0.005286	-0.001814	0.013663
0.066500	16	-0.008383	-0.007338	0.012209
0.067500	16	-0.011106	-0.008443	0.011622
0.068500	16	-0.007772	-0.007654	0.010945
0.069500	15	-0.006906	-0.009074	0.013868
0.070500	15	-0.007895	-0.008758	0.011641
0.071500	16	-0.005641	-0.002445	0.012430
0.072500	16	-0.006608	-0.007496	0.011340
0.073500	19	-0.009489	-0.011915	0.010018
0.074500	16	-0.007535	-0.007022	0.013400
0.075500	16	-0.004339	-0.004497	0.011803
0.076500	19	-0.010037	-0.011284	0.010276
0.077500	16	-0.007219	-0.003076	0.012472
0.078500	15	-0.005244	-0.006549	0.010319
0.079500	16	-0.006982	-0.011915	0.013305
0.080500	16	-0.008225	-0.011757	0.010229
0.081500	15	-0.007664	-0.006549	0.011878
0.082500	16	-0.005700	-0.003550	0.012019
0.083500	16	-0.006410	-0.006864	0.012081
0.084500	18	-0.003742	-0.001972	0.009004
0.085500	16	-0.006903	-0.008916	0.010584
0.086500	16	-0.005799	-0.006233	0.012115
0.087500	18	-0.007215	-0.005917	0.010147
0.088500	17	-0.005360	-0.002129	0.010607
0.089500	16	-0.005128	-0.002603	0.013364
0.090500	16	-0.006410	-0.010652	0.012863
0.091500	16	-0.006608	-0.004497	0.011321
0.092500	15	-0.007643	-0.011915	0.011191
0.093500	15	-0.006675	-0.007811	0.011860
0.094500	16	-0.004299	-0.001656	0.010414
0.095500	16	-0.007101	-0.007022	0.011256
0.096500	18	-0.003619	-0.005128	0.011421
0.097500	17	-0.002686	-0.005602	0.008975
0.098500	16	-0.006390	-0.011284	0.012410
0.099500	19	-0.005801	-0.004970	0.011642
0.100500	16	-0.006765	-0.009705	0.015399
0.101500	15	-0.000698	-0.000236	0.010413
0.102500	16	-0.003253	-0.004655	0.011689
0.103500	16	-0.006746	-0.009548	0.010196
0.104500	15	-0.003412	-0.003076	0.012561
0.105500	16	-0.004457	-0.008127	0.011688
0.106500	16	-0.006233	-0.005286	0.009654
0.107500	18	-0.002830	-0.000393	0.010259
0.108500	16	-0.004851	-0.008443	0.012559
0.109500	16	-0.002977	-0.003076	0.011038
0.110500	16	-0.001261	-0.002603	0.010708
0.111500	19	-0.006199	-0.006864	0.015673
0.112500	16	-0.006173	-0.009232	0.013270
0.113500	15	-0.003876	-0.003708	0.011675
0.114500	17	-0.001089	-0.003708	0.011216
0.115500	15	-0.002886	-0.006864	0.015446
0.116500	15	-0.005833	-0.006233	0.011811
0.117500	16	-0.003273	-0.001182	0.010705
0.118500	16	-0.004615	-0.006864	0.010377
0.119500	18	-0.000515	0.001185	0.012877
