x 5.050505
w 45.886890
wstd 0.014040
# theta(rad)	count	mean(uA)	median(uA)	std dev(uA)
0.000500	15	-0.009705	-0.006864	0.009363
0.001500	15	-0.008169	-0.009074	0.009604
0.002500	17	-0.007458	-0.009390	0.010511
0.003500	18	-0.008057	-0.006075	0.010349
0.004500	19	-0.009606	-0.007180	0.010586
0.005500	15	-0.009979	-0.011284	0.008808
0.006500	15	-0.008421	-0.009074	0.011841
0.007500	15	-0.007601	-0.005917	0.012061
0.008500	16	-0.009705	-0.012862	0.012231
0.009500	18	-0.008828	-0.007496	0.010133
0.010500	17	-0.006158	-0.004339	0.011157
0.011500	15	-0.008863	-0.011284	0.011106
0.012500	15	-0.010252	-0.007496	0.009857
0.013500	17	-0.010634	-0.009390	0.009746
0.014500	18	-0.008512	-0.009548	0.010969
0.015500	19	-0.012048	-0.011599	0.010272
0.016500	15	-0.006801	-0.006864	0.010118
0.017500	15	-0.007033	-0.008443	0.008002
0.018500	15	-0.009242	-0.007496	0.008437
0.019500	16	-0.004990	-0.005286	0.010560
0.020500	18	-0.009810	-0.008916	0.010264
0.021500	17	-0.009724	-0.011915	0.010470
0.022500	15	-0.007790	-0.003392	0.012260
0.023500	15	-0.009074	-0.008127	0.009974
0.024500	17	-0.006567	-0.004339	0.009399
0.025500	15	-0.011199	-0.009074	0.012799
0.026500	22	-0.009246	-0.008285	0.009645
0.027500	15	-0.009495	-0.013809	0.012332
0.028500	15	-0.011515	-0.013809	0.011052
0.029500	15	-0.009895	-0.010652	0.008345
0.030500	16	-0.005641	-0.002445	0.011336
0.031500	16	-0.007910	-0.003392	0.012358
0.032500	19	-0.011084	-0.012546	0.012538
0.033500	15	-0.008064	-0.009390	0.009994
0.034500	15	-0.009937	-0.007496	0.010817
0.035500	15	-0.008000	-0.007811	0.011573
0.036500	17	-0.007941	-0.010021	0.011584
0.037500	22	-0.010423	-0.008601	0.010069
0.038500	15	-0.010757	-0.006233	0.013034
0.039500	15	-0.007327	-0.003076	0.013199
0.040500	15	-0.009263	-0.007811	0.011664
0.041500	16	-0.009311	-0.009548	0.008888
0.042500	16	-0.007614	-0.005444	0.011242
0.043500	19	-0.008609	-0.005602	0.013138
0.044500	15	-0.009873	-0.008443	0.012316
0.045500	15	-0.010968	-0.005917	0.011132
0.046500	15	-0.006717	-0.010652	0.011253
0.047500	17	-0.010039	-0.008443	0.009622
0.048500	18	-0.006338	-0.005128	0.010152
0.049500	19	-0.009788	-0.010021	0.010581
0.050500	15	-0.007958	-0.008758	0.012348
0.051500	15	-0.010063	-0.008127	0.011512
0.052500	16	-0.007811	-0.005286	0.012269
0.053500	16	-0.008758	-0.008916	0.011015
0.054500	17	-0.009742	-0.012231	0.013162
0.055500	17	-0.000569	-0.000867	0.011516
0.056500	15	-0.007727	-0.007180	0.010903
0.057500	15	-0.011115	-0.014125	0.013224
0.058500	17	-0.009222	-0.007811	0.010436
0.059500	18	-0.006338	-0.006075	0.010816
0.060500	19	-0.010436	-0.013809	0.011129
0.061500	15	-0.005285	-0.004339	0.013994
0.062500	15	-0.005643	-0.005917	0.012953
0.063500	15	-0.006843	-0.005286	0.012389
0.064500	17	-0.005527	-0.005602	0.012288
0.065500	17	-0.006938	-0.004970	0.010957
0.066500	17	-0.007217	-0.006549	0.012649
0.067500	15	-0.006043	-0.008127	0.011380
0.068500	15	-0.007559	-0.010968	0.011142
0.069500	17	-0.006734	-0.007180	0.010494
0.070500	18	-0.006864	-0.008916	0.011530
0.071500	19	-0.004821	-0.004023	0.010054
0.072500	15	-0.006254	-0.004339	0.009841
0.073500	15	-0.004739	-0.004023	0.010483
0.074500	15	-0.007369	-0.009390	0.012480
0.075500	17	-0.006307	-0.003708	0.014238
0.076500	17	-0.006233	-0.004655	0.011041
0.077500	17	-0.008999	-0.011284	0.011677
0.078500	15	-0.005075	-0.003392	0.011606
0.079500	15	-0.006591	-0.007180	0.008362
0.080500	17	-0.007737	-0.010968	0.009939
0.081500	18	-0.007074	-0.006864	0.012160
0.082500	19	-0.006698	-0.003392	0.013612
0.083500	15	-0.008821	-0.006864	0.012291
0.084500	15	-0.003518	-0.003392	0.011036
0.085500	15	-0.005959	-0.004023	0.011337
0.086500	16	-0.007555	-0.007022	0.010205
0.087500	18	-0.005478	-0.005602	0.013833
0.088500	17	-0.005063	-0.004339	0.012137
0.089500	15	-0.008969	-0.008127	0.011718
0.090500	15	-0.009347	-0.010337	0.010703
0.091500	17	-0.005193	-0.003392	0.008888
0.092500	18	-0.008267	-0.010652	0.011610
0.093500	19	-0.004039	-0.000236	0.012490
0.094500	15	-0.005433	-0.005602	0.010398
0.095500	15	-0.005622	-0.003708	0.013105
0.096500	15	-0.007516	-0.011284	0.011005
0.097500	16	-0.006982	-0.007811	0.010437
0.098500	18	-0.003093	-0.003550	0.014805
0.099500	17	-0.006232	-0.011284	0.012794
0.100500	15	-0.006317	-0.005286	0.011356
0.101500	15	-0.003812	-0.001182	0.014434
0.102500	17	-0.006103	-0.006864	0.012522
0.103500	15	-0.005664	-0.002445	0.013005
0.104500	18	-0.004935	-0.004970	0.010116
0.105500	19	-0.006332	-0.008443	0.012810
0.106500	15	-0.005517	-0.006549	0.013067
0.107500	15	-0.004444	-0.001498	0.013765
0.108500	16	-0.004615	-0.003708	0.011405
0.109500	16	-0.005976	-0.008443	0.011549
0.110500	17	-0.002853	-0.002129	0.009797
0.111500	17	-0.006010	-0.006864	0.013804
0.112500	15	-0.005727	-0.007496	0.012161
0.113500	17	-0.005694	-0.006549	0.012092
0.114500	15	-0.003518	-0.005917	0.013376
0.115500	18	-0.002286	-0.001340	0.013691
0.116500	19	-0.003093	-0.004023	0.010063
0.117500	15	-0.005159	-0.005917	0.010658
0.118500	15	-0.008211	-0.013178	0.013697
0.119500	16	-0.002977	-0.004970	0.012774
