x 5.808081
w 46.113317
wstd 0.028490
# theta(rad)	count	mean(uA)	median(uA)	std dev(uA)
0.000500	16	-0.005365	-0.003708	0.011337
0.001500	16	-0.006884	-0.006233	0.012377
0.002500	20	-0.006643	-0.007022	0.011653
0.003500	15	-0.002844	-0.003392	0.015414
0.004500	15	-0.005181	-0.004023	0.009624
0.005500	18	-0.005935	-0.004813	0.012748
0.006500	19	-0.006681	-0.005602	0.014203
0.007500	16	-0.006331	-0.005602	0.012566
0.008500	15	-0.008169	-0.005286	0.011879
0.009500	15	-0.006633	-0.004970	0.009949
0.010500	15	-0.005896	-0.004023	0.011309
0.011500	16	-0.004773	-0.006391	0.011832
0.012500	15	-0.005496	-0.003392	0.013369
0.013500	16	-0.005226	-0.002287	0.013397
0.014500	20	-0.007054	-0.003392	0.010977
0.015500	15	-0.008358	-0.006233	0.010959
0.016500	17	-0.005824	-0.006233	0.013210
0.017500	16	-0.004930	-0.002129	0.013147
0.018500	19	-0.006150	-0.004339	0.012627
0.019500	16	-0.008857	-0.009074	0.012262
0.020500	15	-0.006843	-0.003076	0.013158
0.021500	15	-0.005875	-0.004023	0.011084
0.022500	15	-0.006001	-0.004655	0.012548
0.023500	16	-0.006213	-0.006864	0.010732
0.024500	15	-0.005138	-0.002445	0.009932
0.025500	16	-0.006568	-0.008601	0.011874
0.026500	20	-0.007906	-0.007496	0.011407
0.027500	15	-0.002360	-0.000551	0.012804
0.028500	17	-0.006920	-0.005286	0.012910
0.029500	17	-0.007235	-0.006549	0.013627
0.030500	18	-0.005461	-0.006549	0.012460
0.031500	16	-0.006055	-0.006075	0.011194
0.032500	15	-0.009368	-0.005602	0.013664
0.033500	15	-0.006717	-0.001814	0.013081
0.034500	15	-0.005117	-0.003076	0.011210
0.035500	16	-0.005739	-0.004655	0.013103
0.036500	15	-0.003749	-0.001498	0.011452
0.037500	16	-0.005424	-0.005602	0.011629
0.038500	20	-0.005349	-0.005286	0.012498
0.039500	15	-0.009390	-0.005917	0.010682
0.040500	18	-0.005216	-0.001025	0.010860
0.041500	16	-0.009054	-0.008758	0.010363
0.042500	18	-0.003777	-0.003866	0.012168
0.043500	16	-0.005680	-0.004497	0.012234
0.044500	15	-0.008674	-0.003708	0.012616
0.045500	15	-0.007243	-0.008758	0.011129
0.046500	15	-0.006654	-0.005602	0.010545
0.047500	16	-0.006272	-0.003866	0.011163
0.048500	15	-0.008379	-0.007496	0.012601
0.049500	16	-0.003648	-0.002919	0.009920
0.050500	20	-0.005317	-0.002445	0.013459
0.051500	15	-0.005517	-0.003076	0.010757
0.052500	18	-0.009810	-0.010179	0.009226
0.053500	16	-0.006252	-0.006233	0.013700
0.054500	19	-0.005153	-0.003076	0.011298
0.055500	15	-0.007453	-0.006549	0.011140
0.056500	15	-0.006485	-0.004023	0.011139
0.057500	15	-0.006106	0.000080	0.012175
0.058500	16	-0.004931	-0.001814	0.011724
0.059500	15	-0.007032	-0.007496	0.010592
0.060500	15	-0.005643	-0.007496	0.011649
0.061500	16	-0.004970	-0.000551	0.012291
0.062500	20	-0.006690	-0.006233	0.011483
0.063500	17	-0.003744	-0.002761	0.012516
0.064500	16	-0.007219	-0.004655	0.011583
0.065500	16	-0.008501	-0.011441	0.014103
0.066500	19	-0.006266	-0.007180	0.010792
0.067500	15	-0.003265	-0.003392	0.011905
0.068500	15	-0.007411	-0.010021	0.014310
0.069500	15	-0.007685	-0.006549	0.011634
0.070500	16	-0.006529	-0.005760	0.011210
0.071500	15	-0.005728	-0.005602	0.010862
0.072500	15	-0.006338	-0.006549	0.010813
0.073500	17	-0.007217	-0.004339	0.013664
0.074500	19	-0.003059	-0.002445	0.010430
0.075500	17	-0.007105	-0.008443	0.012370
0.076500	16	-0.005779	-0.004181	0.012683
0.077500	19	-0.007628	-0.008758	0.013963
0.078500	16	-0.007555	-0.006707	0.011339
0.079500	15	-0.004886	-0.004023	0.013323
0.080500	15	-0.005685	-0.003076	0.013919
0.081500	15	-0.006317	-0.005917	0.010229
0.082500	16	-0.006647	-0.006075	0.011633
0.083500	15	-0.005096	-0.004970	0.013720
0.084500	15	-0.005959	-0.007496	0.011270
0.085500	17	-0.009222	-0.010652	0.011844
0.086500	19	-0.004571	-0.004655	0.011393
0.087500	18	-0.004251	-0.001972	0.010903
0.088500	16	-0.004437	-0.002287	0.014575
0.089500	18	-0.007478	-0.005760	0.010991
0.090500	16	-0.005187	-0.006391	0.012051
0.091500	15	-0.008421	-0.009074	0.011598
0.092500	15	-0.005075	-0.003076	0.010390
0.093500	15	-0.004233	-0.000551	0.010764
0.094500	16	-0.006607	-0.002761	0.013942
0.095500	15	-0.007832	-0.004970	0.010091
0.096500	16	-0.004122	-0.004181	0.012169
0.097500	16	-0.007101	-0.006864	0.011382
0.098500	21	-0.006188	-0.006233	0.012196
0.099500	16	-0.007476	-0.003392	0.011551
0.100500	16	-0.007969	-0.004181	0.013111
0.101500	18	-0.005864	-0.001972	0.010914
0.102500	16	-0.008423	-0.007338	0.009914
0.103500	15	-0.006759	-0.008127	0.012650
0.104500	15	-0.003518	0.000396	0.012672
0.105500	15	-0.005770	-0.000551	0.011307
0.106500	16	-0.008146	-0.005760	0.011970
0.107500	15	-0.003076	-0.004339	0.012431
0.108500	16	-0.007377	-0.006549	0.011641
0.109500	16	-0.008284	-0.009863	0.012387
0.110500	21	-0.003061	-0.003708	0.011552
0.111500	16	-0.005858	-0.003550	0.011482
0.112500	16	-0.006963	-0.003550	0.012670
0.113500	18	-0.003427	-0.002445	0.010278
0.114500	16	-0.008364	-0.006391	0.011372
0.115500	15	-0.006254	-0.005286	0.011624
0.116500	15	-0.003076	-0.001814	0.009723
0.117500	16	-0.006785	-0.005760	0.012336
0.118500	15	-0.006106	-0.006233	0.011307
0.119500	15	-0.001603	0.001027	0.011711
