x 6.060606
w 46.095625
wstd 0.031789
# theta(rad)	count	mean(uA)	median(uA)	std dev(uA)
0.000500	17	-0.008981	-0.012862	0.011461
0.001500	16	-0.009784	-0.011284	0.012646
0.002500	18	-0.009512	-0.011599	0.011375
0.003500	15	-0.007201	-0.004655	0.010778
0.004500	16	-0.007772	-0.006864	0.009299
0.005500	16	-0.008640	-0.008127	0.008504
0.006500	16	-0.007436	-0.009232	0.012797
0.007500	17	-0.008331	-0.011284	0.013316
0.008500	15	-0.009726	-0.005602	0.013164
0.009500	15	-0.010126	-0.008443	0.010483
0.010500	18	-0.008039	-0.009074	0.011671
0.011500	17	-0.004747	-0.002445	0.009128
0.012500	16	-0.009528	-0.007654	0.010797
0.013500	16	-0.009034	-0.007969	0.013337
0.014500	18	-0.010670	-0.008758	0.010867
0.015500	15	-0.008316	-0.010337	0.011245
0.016500	16	-0.007594	-0.005128	0.011449
0.017500	16	-0.005641	-0.005602	0.008619
0.018500	16	-0.009666	-0.010495	0.009405
0.019500	17	-0.009612	-0.009705	0.012467
0.020500	15	-0.009053	-0.007811	0.010760
0.021500	15	-0.009852	-0.010968	0.012136
0.022500	18	-0.006338	-0.008443	0.012619
0.023500	17	-0.007031	-0.004339	0.009059
0.024500	17	-0.004933	-0.002445	0.010034
0.025500	15	-0.005812	-0.007496	0.010541
0.026500	18	-0.009495	-0.012862	0.012293
0.027500	16	-0.011481	-0.011284	0.010319
0.028500	15	-0.006675	-0.007811	0.010341
0.029500	17	-0.005081	-0.005602	0.010874
0.030500	15	-0.006717	-0.005917	0.010264
0.031500	17	-0.005137	-0.008758	0.011262
0.032500	15	-0.009789	-0.006864	0.012649
0.033500	15	-0.006948	-0.001498	0.012849
0.034500	19	-0.004737	-0.003076	0.011181
0.035500	16	-0.005818	-0.008285	0.009945
0.036500	17	-0.005787	-0.004655	0.009372
0.037500	15	-0.007306	-0.008758	0.010196
0.038500	18	-0.008846	-0.014282	0.012549
0.039500	16	-0.006568	-0.007811	0.009797
0.040500	16	-0.006963	-0.006707	0.012247
0.041500	16	-0.007535	-0.009074	0.008292
0.042500	15	-0.005707	-0.005917	0.010636
0.043500	17	-0.004116	-0.004339	0.010261
0.044500	15	-0.008042	-0.011915	0.012409
0.045500	18	-0.008197	-0.012231	0.012896
0.046500	16	-0.007081	-0.007654	0.011034
0.047500	17	-0.006159	-0.004655	0.009332
0.048500	16	-0.006864	-0.005128	0.009842
0.049500	15	-0.005854	-0.006233	0.011223
0.050500	18	-0.008513	-0.007811	0.011681
0.051500	16	-0.011027	-0.009863	0.010721
0.052500	16	-0.008758	-0.010810	0.011620
0.053500	16	-0.007929	-0.007811	0.015525
0.054500	16	-0.003392	-0.004655	0.010221
0.055500	16	-0.007259	-0.007496	0.009850
0.056500	15	-0.008358	-0.006549	0.009669
0.057500	18	-0.008986	-0.011599	0.015568
0.058500	17	-0.008090	-0.010337	0.011055
0.059500	16	-0.008719	-0.010337	0.009847
0.060500	16	-0.004733	-0.004655	0.010567
0.061500	15	-0.006948	-0.006549	0.010582
0.062500	19	-0.009173	-0.007811	0.010502
0.063500	15	-0.008358	-0.008758	0.010168
0.064500	16	-0.004931	-0.002919	0.010950
0.065500	16	-0.009824	-0.010495	0.010716
0.066500	16	-0.009054	-0.009074	0.011950
0.067500	16	-0.004931	-0.002445	0.010025
0.068500	15	-0.006485	-0.010337	0.011476
0.069500	19	-0.007063	-0.008443	0.012255
0.070500	16	-0.008837	-0.011126	0.012973
0.071500	16	-0.008186	-0.006864	0.009623
0.072500	16	-0.004555	-0.009548	0.012418
0.073500	16	-0.008995	-0.008601	0.009377
0.074500	18	-0.009530	-0.009863	0.013072
0.075500	15	-0.008947	-0.014440	0.013358
0.076500	16	-0.008719	-0.008601	0.011609
0.077500	16	-0.009311	-0.008758	0.011993
0.078500	16	-0.006588	-0.006549	0.011009
0.079500	16	-0.006608	-0.008127	0.009422
0.080500	18	-0.007899	-0.011757	0.012248
0.081500	16	-0.006232	-0.009074	0.013876
0.082500	16	-0.009370	-0.010495	0.010775
0.083500	16	-0.010948	-0.015545	0.011658
0.084500	16	-0.008876	-0.013809	0.013210
0.085500	16	-0.006608	-0.005602	0.010836
0.086500	18	-0.007636	-0.009705	0.008984
0.087500	16	-0.007397	-0.009548	0.011478
0.088500	16	-0.011323	-0.010968	0.011565
0.089500	15	-0.009873	-0.013809	0.011467
0.090500	16	-0.007397	-0.010652	0.009515
0.091500	16	-0.005088	-0.007969	0.013388
0.092500	18	-0.007022	-0.009863	0.010913
0.093500	16	-0.008936	-0.012704	0.008832
0.094500	16	-0.006884	-0.005602	0.011043
0.095500	16	-0.011343	-0.012388	0.012237
0.096500	16	-0.008502	-0.011126	0.011195
0.097500	17	-0.009538	-0.010021	0.009916
0.098500	17	-0.006753	-0.007811	0.011088
0.099500	16	-0.005976	-0.008758	0.012261
0.100500	16	-0.010869	-0.008758	0.013375
0.101500	15	-0.009789	-0.010968	0.011181
0.102500	16	-0.006568	-0.008758	0.011743
0.103500	16	-0.005562	-0.009390	0.009942
0.104500	18	-0.008179	-0.010337	0.009397
0.105500	16	-0.008502	-0.010810	0.011299
0.106500	17	-0.012045	-0.016966	0.011001
0.107500	16	-0.005503	-0.004970	0.012488
0.108500	15	-0.008043	-0.009074	0.009946
0.109500	17	-0.009074	-0.010652	0.010356
0.110500	17	-0.007681	-0.007496	0.011209
0.111500	16	-0.007219	-0.008916	0.010835
0.112500	16	-0.010198	-0.009232	0.012116
0.113500	15	-0.010821	-0.014125	0.009860
0.114500	16	-0.005049	-0.004023	0.013232
0.115500	19	-0.005385	-0.007496	0.012753
0.116500	16	-0.005956	-0.007022	0.010782
0.117500	16	-0.005858	-0.007969	0.012557
0.118500	16	-0.009370	-0.013020	0.010364
0.119500	16	-0.008265	-0.007811	0.013090
