x 6.313131
w 45.960730
wstd 0.005618
# theta(rad)	count	mean(uA)	median(uA)	std dev(uA)
0.000500	15	-0.011115	-0.006864	0.011330
0.001500	18	-0.010547	-0.011599	0.013586
0.002500	15	-0.008463	-0.009074	0.015374
0.003500	15	-0.010105	-0.010337	0.012345
0.004500	15	-0.007495	-0.010652	0.013045
0.005500	15	-0.008716	-0.010968	0.009922
0.006500	27	-0.007507	-0.009074	0.013615
0.007500	15	-0.010294	-0.010021	0.012661
0.008500	15	-0.011389	-0.011599	0.012667
0.009500	15	-0.009221	-0.008127	0.013908
0.010500	15	-0.006569	-0.007180	0.012695
0.011500	15	-0.006612	-0.005286	0.010142
0.012500	18	-0.010003	-0.011284	0.011602
0.013500	15	-0.010884	-0.015072	0.012478
0.014500	15	-0.010568	-0.009390	0.013216
0.015500	15	-0.008148	-0.010021	0.014311
0.016500	15	-0.010168	-0.011284	0.014687
0.017500	17	-0.011098	-0.013809	0.012916
0.018500	25	-0.007192	-0.007811	0.010967
0.019500	15	-0.013451	-0.016334	0.010741
0.020500	15	-0.012883	-0.016334	0.012970
0.021500	15	-0.009810	-0.010021	0.013987
0.022500	15	-0.009221	-0.011284	0.014210
0.023500	17	-0.011803	-0.012862	0.010678
0.024500	16	-0.007574	-0.010179	0.010831
0.025500	15	-0.012988	-0.011599	0.010531
0.026500	15	-0.012462	-0.013178	0.010819
0.027500	15	-0.010568	-0.013178	0.011676
0.028500	15	-0.011410	-0.015703	0.012899
0.029500	27	-0.009179	-0.008758	0.011858
0.030500	15	-0.011746	-0.011915	0.013104
0.031500	15	-0.011810	-0.014125	0.009951
0.032500	15	-0.011178	-0.007811	0.014250
0.033500	15	-0.012315	-0.014125	0.010994
0.034500	15	-0.009600	-0.009705	0.011252
0.035500	18	-0.008653	-0.008758	0.012070
0.036500	15	-0.007664	-0.007811	0.013475
0.037500	15	-0.012483	-0.013178	0.011309
0.038500	15	-0.009410	-0.007496	0.011191
0.039500	15	-0.009179	-0.010968	0.012067
0.040500	17	-0.013549	-0.012862	0.011960
0.041500	25	-0.008834	-0.011599	0.014103
0.042500	15	-0.008527	-0.007811	0.009907
0.043500	15	-0.011936	-0.011915	0.009132
0.044500	15	-0.010084	-0.013178	0.013815
0.045500	15	-0.010000	-0.009390	0.011154
0.046500	17	-0.011413	-0.012231	0.013633
0.047500	16	-0.006252	-0.005444	0.010937
0.048500	15	-0.008800	-0.008443	0.009163
0.049500	15	-0.010021	-0.009705	0.010991
0.050500	15	-0.010989	-0.012862	0.010933
0.051500	17	-0.011024	-0.007180	0.013216
0.052500	25	-0.009629	-0.011915	0.012597
0.053500	15	-0.009158	-0.010652	0.010248
0.054500	15	-0.004991	-0.007496	0.010639
0.055500	15	-0.008674	-0.007180	0.011253
0.056500	15	-0.009516	-0.010021	0.009247
0.057500	17	-0.009835	-0.014125	0.010418
0.058500	16	-0.010869	-0.009863	0.011090
0.059500	15	-0.008779	-0.004970	0.011700
0.060500	15	-0.006043	-0.005602	0.011794
0.061500	15	-0.010273	-0.007496	0.008996
0.062500	15	-0.011031	-0.011599	0.007740
0.063500	27	-0.009191	-0.011915	0.012277
0.064500	15	-0.012778	-0.011284	0.011016
0.065500	15	-0.009116	-0.011284	0.011808
0.066500	15	-0.005770	-0.004023	0.013261
0.067500	15	-0.007664	-0.007496	0.011996
0.068500	15	-0.009747	-0.008443	0.008409
0.069500	18	-0.009723	-0.009074	0.011653
0.070500	15	-0.009937	-0.010337	0.012678
0.071500	15	-0.010379	-0.008127	0.010928
0.072500	15	-0.006738	-0.002761	0.008653
0.073500	15	-0.006506	-0.004339	0.009523
0.074500	17	-0.008684	-0.007180	0.010737
0.075500	25	-0.009503	-0.010652	0.012708
0.076500	15	-0.008043	-0.009705	0.010906
0.077500	15	-0.010736	-0.011284	0.011239
0.078500	15	-0.008800	-0.009705	0.009583
0.079500	15	-0.005496	-0.005286	0.008797
0.080500	17	-0.005917	-0.004655	0.009989
0.081500	16	-0.009192	-0.009074	0.010666
0.082500	15	-0.010905	-0.010968	0.011208
0.083500	15	-0.006674	-0.002761	0.013171
0.084500	15	-0.008274	-0.006549	0.009327
0.085500	17	-0.008461	-0.006864	0.008962
0.086500	25	-0.006006	-0.005602	0.008766
0.087500	15	-0.008548	-0.011915	0.012107
0.088500	15	-0.009074	-0.010337	0.012454
0.089500	15	-0.007706	-0.010968	0.011186
0.090500	15	-0.008127	-0.008443	0.009491
0.091500	17	-0.005638	-0.008758	0.010676
0.092500	16	-0.004220	-0.005444	0.010536
0.093500	15	-0.005307	-0.004339	0.008629
0.094500	15	-0.006296	-0.006864	0.010569
0.095500	15	-0.005138	-0.005602	0.011455
0.096500	15	-0.007769	-0.008127	0.010846
0.097500	17	-0.005509	-0.010652	0.008320
0.098500	25	-0.005841	-0.006864	0.010491
0.099500	15	-0.006612	-0.006549	0.010055
0.100500	15	-0.005138	-0.005917	0.013994
0.101500	15	-0.007495	-0.006549	0.011310
0.102500	15	-0.003412	-0.007180	0.011668
0.103500	17	-0.002426	-0.004023	0.009681
0.104500	16	-0.005128	-0.008127	0.011583
0.105500	15	-0.003665	-0.004655	0.010124
0.106500	15	-0.004423	-0.008127	0.012201
0.107500	15	-0.004212	-0.003076	0.011952
0.108500	17	-0.004431	-0.006549	0.011521
0.109500	25	-0.005589	-0.010337	0.010568
0.110500	15	-0.000950	-0.003076	0.010025
0.111500	15	-0.003223	-0.005602	0.009522
0.112500	15	-0.007748	-0.009074	0.011393
0.113500	15	-0.003770	-0.006549	0.012829
0.114500	17	-0.004190	-0.002129	0.013045
0.115500	16	-0.004476	-0.008443	0.012660
0.116500	15	-0.002403	-0.005602	0.008171
0.117500	15	-0.002823	-0.004655	0.011639
0.118500	15	-0.003602	-0.006233	0.010275
0.119500	17	-0.005063	-0.005602	0.010309
