x 20.000000
y 3.000000
r 127.000000
dw .254
w 31.072404
wstd 0.002938
# theta(rad)	count	mean(uA)	median(uA)	std dev(uA)
-0.300000	9	0.184843	0.197331	0.039081
-0.299300	9	0.183019	0.193543	0.043500
-0.298600	9	0.195928	0.199857	0.045294
-0.297900	11	0.184817	0.198594	0.055725
-0.297200	16	0.176415	0.195437	0.049794
-0.296500	9	0.180633	0.174599	0.043872
-0.295800	9	0.196630	0.187228	0.051351
-0.295100	9	0.189614	0.175862	0.038991
-0.294400	9	0.181615	0.180914	0.051334
-0.293700	9	0.181615	0.178388	0.044718
-0.293000	9	0.174038	0.182177	0.042311
-0.292300	12	0.186386	0.182177	0.043697
-0.291600	15	0.164244	0.161971	0.045319
-0.290900	9	0.184282	0.191017	0.044431
-0.290200	9	0.182598	0.197331	0.036085
-0.289500	9	0.168566	0.182177	0.047417
-0.288800	9	0.178248	0.196069	0.049188
-0.288100	9	0.167022	0.179651	0.043374
-0.287400	9	0.174599	0.164496	0.036573
-0.286700	17	0.181880	0.183440	0.048293
-0.286000	10	0.178136	0.176494	0.063582
-0.285300	9	0.166320	0.155656	0.043862
-0.284600	9	0.183580	0.184703	0.040384
-0.283900	9	0.183159	0.191017	0.037292
-0.283200	9	0.167864	0.143027	0.050582
-0.282500	9	0.176424	0.160708	0.041371
-0.281800	9	0.187509	0.226378	0.050018
-0.281100	18	0.178388	0.174599	0.054387
-0.280400	9	0.164216	0.159445	0.039677
-0.279700	9	0.179090	0.185965	0.038440
-0.279000	9	0.184983	0.184703	0.034590
-0.278300	9	0.178248	0.159445	0.044257
-0.277600	9	0.161550	0.165759	0.043488
-0.276900	9	0.176143	0.184703	0.045986
-0.276200	9	0.165479	0.179651	0.057820
-0.275500	18	0.171863	0.179020	0.039748
-0.274800	9	0.177967	0.159445	0.050572
-0.274100	9	0.173337	0.153130	0.049247
-0.273400	9	0.182177	0.189754	0.047392
-0.272700	9	0.172635	0.179651	0.042416
-0.272000	9	0.164356	0.158182	0.047202
-0.271300	9	0.166882	0.169548	0.033968
-0.270600	9	0.186386	0.189754	0.041207
-0.269900	18	0.180633	0.172074	0.050089
-0.269200	9	0.178248	0.184703	0.050123
-0.268500	9	0.164917	0.175862	0.037849
-0.267800	9	0.171653	0.187228	0.037901
-0.267100	9	0.178949	0.199857	0.039874
-0.266400	9	0.174599	0.180914	0.037727
-0.265700	9	0.174740	0.175862	0.047892
-0.265000	9	0.189473	0.204909	0.051343
-0.264300	18	0.164987	0.166391	0.041554
-0.263600	9	0.174459	0.165759	0.038168
-0.262900	9	0.181054	0.179651	0.042358
-0.262200	9	0.174038	0.173337	0.039777
-0.261500	9	0.176564	0.158182	0.048252
-0.260800	9	0.168987	0.159445	0.046528
-0.260100	9	0.171793	0.191017	0.046747
-0.259400	9	0.168846	0.170811	0.036820
-0.258700	18	0.174459	0.170811	0.040217
-0.258000	9	0.180914	0.177125	0.039503
-0.257300	9	0.176564	0.193543	0.048894
-0.256600	9	0.175161	0.187228	0.055952
-0.255900	9	0.162672	0.180914	0.033609
-0.255200	9	0.178528	0.185965	0.043770
-0.254500	9	0.167724	0.173337	0.042198
-0.253800	9	0.181195	0.192280	0.047207
-0.253100	18	0.172916	0.182808	0.050437
-0.252400	9	0.166320	0.191017	0.048086
-0.251700	9	0.160146	0.160708	0.042724
-0.251000	9	0.168987	0.184703	0.038255
-0.250300	9	0.180493	0.175862	0.044832
-0.249600	9	0.169969	0.177125	0.053384
-0.248900	9	0.164356	0.175862	0.044628
-0.248200	9	0.181615	0.199857	0.041495
-0.247500	18	0.164356	0.167022	0.042438
-0.246800	9	0.168285	0.158182	0.038027
-0.246100	9	0.176424	0.197331	0.049010
-0.245400	9	0.180633	0.184703	0.051543
-0.244700	9	0.172074	0.175862	0.046298
-0.244000	9	0.165198	0.156919	0.051554
-0.243300	9	0.169267	0.183440	0.039592
-0.242600	9	0.165900	0.169548	0.036332
-0.241900	18	0.169899	0.180914	0.041308
-0.241200	9	0.171232	0.192280	0.045736
-0.240500	9	0.160708	0.172074	0.045069
-0.239800	9	0.162532	0.167022	0.034740
-0.239100	9	0.165900	0.178388	0.041819
-0.238400	9	0.170670	0.188491	0.035930
-0.237700	9	0.171372	0.174599	0.038144
-0.237000	9	0.167724	0.174599	0.041259
-0.236300	18	0.168706	0.187860	0.049525
-0.235600	9	0.153411	0.148079	0.031099
-0.234900	9	0.162391	0.159445	0.037159
-0.234200	9	0.177406	0.199857	0.042635
-0.233500	9	0.183720	0.194806	0.037477
-0.232800	9	0.162532	0.161971	0.034735
-0.232100	9	0.165619	0.194806	0.048862
-0.231400	9	0.161409	0.184703	0.043341
-0.230700	18	0.163865	0.161339	0.031536
-0.230000	9	0.171091	0.177125	0.038906
-0.229300	9	0.172635	0.187228	0.045461
-0.228600	9	0.168004	0.159445	0.040332
-0.227900	9	0.163935	0.173337	0.040184
-0.227200	9	0.157901	0.164496	0.040982
-0.226500	9	0.116930	0.131661	0.097044
-0.225800	18	0.017305	0.013583	0.076489
-0.225100	9	0.147517	0.156919	0.041384
-0.224400	9	0.157059	0.174599	0.041304
-0.223700	9	0.161830	0.167022	0.039127
-0.223000	9	0.159585	0.164496	0.036112
-0.222300	9	0.161550	0.163233	0.030263
-0.221600	9	0.168566	0.169548	0.035199
-0.220900	9	0.162251	0.172074	0.040591
-0.220200	18	0.157480	0.158182	0.041431
-0.219500	9	0.173617	0.182177	0.038856
-0.218800	9	0.155796	0.158182	0.041002
-0.218100	9	0.167583	0.163233	0.035145
-0.217400	9	0.169408	0.148079	0.039733
-0.216700	9	0.177827	0.180914	0.046494
-0.216000	9	0.162251	0.159445	0.047503
-0.215300	9	0.162391	0.135450	0.050153
-0.214600	18	0.173617	0.161971	0.038279
-0.213900	9	0.165198	0.169548	0.035978
-0.213200	9	0.173758	0.160708	0.046072
-0.212500	9	0.163935	0.169548	0.027405
-0.211800	9	0.165058	0.165759	0.039808
-0.211100	9	0.162111	0.167022	0.031409
-0.210400	9	0.154253	0.146816	0.033458
-0.209700	9	0.160567	0.156919	0.024405
-0.209000	18	0.171583	0.173968	0.038998
-0.208300	9	0.158883	0.154393	0.045332
-0.207600	9	0.159725	0.178388	0.040407
-0.206900	9	0.156779	0.149342	0.038205
-0.206200	9	0.161830	0.161971	0.031000
-0.205500	9	0.166601	0.156919	0.034550
-0.204800	9	0.169688	0.179651	0.050867
-0.204100	9	0.173617	0.180914	0.038865
-0.203400	18	0.158392	0.169548	0.038230
-0.202700	9	0.165479	0.159445	0.028562
-0.202000	9	0.153551	0.143027	0.046786
-0.201300	9	0.164356	0.163233	0.027983
-0.200600	9	0.161971	0.156919	0.045526
-0.199900	9	0.166601	0.158182	0.047425
-0.199200	9	0.164496	0.188491	0.043463
-0.198500	9	0.155095	0.144290	0.039445
-0.197800	18	0.157831	0.148079	0.031242
-0.197100	9	0.163374	0.179651	0.038252
-0.196400	9	0.158463	0.154393	0.046163
-0.195700	9	0.156498	0.153130	0.041703
-0.195000	9	0.155796	0.160708	0.037171
-0.194300	9	0.175722	0.187228	0.051456
-0.193600	9	0.156638	0.136713	0.042510
-0.192900	9	0.166180	0.163233	0.042155
-0.192200	18	0.166391	0.167654	0.048409
-0.191500	9	0.167864	0.172074	0.042765
-0.190800	9	0.156498	0.154393	0.036320
-0.190100	9	0.153972	0.148079	0.042033
-0.189400	9	0.167724	0.146816	0.039785
-0.188700	9	0.171372	0.174599	0.036844
-0.188000	9	0.166741	0.169548	0.038471
-0.187300	9	0.159445	0.143027	0.045991
-0.186600	18	0.153762	0.146184	0.042451
-0.185900	9	0.157059	0.143027	0.040520
-0.185200	9	0.151306	0.136713	0.038504
-0.184500	9	0.160848	0.139239	0.051730
-0.183800	9	0.168285	0.160708	0.058700
-0.183100	9	0.159585	0.170811	0.040711
-0.182400	9	0.150324	0.137976	0.042718
-0.181700	9	0.153832	0.155656	0.037497
-0.181000	18	0.151096	0.138607	0.042786
-0.180300	9	0.168846	0.180914	0.050210
-0.179600	9	0.156919	0.139239	0.045526
-0.178900	9	0.165479	0.154393	0.050159
-0.178200	9	0.153692	0.156919	0.049567
-0.177500	9	0.157621	0.174599	0.035241
-0.176800	9	0.157761	0.145553	0.041443
-0.176100	9	0.157340	0.139239	0.049595
-0.175400	18	0.154183	0.146184	0.043460
-0.174700	9	0.150605	0.146816	0.040294
-0.174000	9	0.150043	0.146816	0.039669
-0.173300	9	0.153271	0.151867	0.040993
-0.172600	9	0.160287	0.168285	0.037016
-0.171900	9	0.153972	0.167022	0.044899
-0.171200	9	0.153972	0.148079	0.037236
-0.170500	10	0.157424	0.171442	0.047020
-0.169800	17	0.156176	0.150605	0.038220
-0.169100	9	0.163935	0.184703	0.044023
-0.168400	9	0.160988	0.167022	0.039475
-0.167700	9	0.161971	0.156919	0.045382
-0.167000	9	0.149482	0.146816	0.036429
-0.166300	9	0.153832	0.156919	0.033013
-0.165600	9	0.152709	0.143027	0.041805
-0.164900	15	0.154477	0.167022	0.046854
-0.164200	12	0.156603	0.152499	0.037347
-0.163500	9	0.162812	0.158182	0.041456
-0.162800	9	0.153972	0.139239	0.041383
-0.162100	9	0.148219	0.148079	0.028454
-0.161400	9	0.158603	0.154393	0.034540
-0.160700	9	0.154534	0.148079	0.045598
-0.160000	9	0.149482	0.134187	0.042725
-0.159300	16	0.158577	0.153762	0.043493
-0.158600	11	0.161282	0.156919	0.034398
-0.157900	9	0.146255	0.167022	0.033614
-0.157200	9	0.148780	0.156919	0.036781
-0.156500	9	0.152990	0.153130	0.037361
-0.155800	9	0.156919	0.150605	0.041186
-0.155100	9	0.158603	0.148079	0.029395
-0.154400	9	0.160567	0.146816	0.054924
-0.153700	18	0.158603	0.158813	0.033168
-0.153000	9	0.146676	0.143027	0.033053
-0.152300	9	0.152008	0.146816	0.039451
-0.151600	9	0.156498	0.150605	0.042831
-0.150900	9	0.160427	0.167022	0.051024
-0.150200	9	0.145974	0.136713	0.040421
-0.149500	9	0.152990	0.146816	0.032918
-0.148800	9	0.160146	0.168285	0.032346
-0.148100	18	0.158392	0.161971	0.040730
-0.147400	9	0.153832	0.143027	0.039383
-0.146700	9	0.155796	0.149342	0.032205
-0.146000	9	0.151727	0.159445	0.036946
-0.145300	9	0.156217	0.172074	0.032423
-0.144600	9	0.144290	0.132924	0.027873
-0.143900	9	0.154113	0.160708	0.040691
-0.143200	9	0.156638	0.149342	0.035843
-0.142500	18	0.157550	0.167022	0.040160
-0.141800	9	0.152990	0.137976	0.031785
-0.141100	9	0.140361	0.135450	0.027543
-0.140400	9	0.141063	0.124084	0.039999
-0.139700	9	0.159585	0.161971	0.046689
-0.139000	9	0.157761	0.150605	0.032060
-0.138300	9	0.147377	0.144290	0.034174
-0.137600	9	0.166180	0.141764	0.042210
-0.136900	18	0.146886	0.146184	0.038636
-0.136200	9	0.148219	0.144290	0.035192
-0.135500	9	0.153130	0.145553	0.036515
-0.134800	9	0.150605	0.136713	0.035416
-0.134100	9	0.143448	0.129135	0.040153
-0.133400	9	0.160427	0.146816	0.036702
-0.132700	9	0.153271	0.139239	0.032365
-0.132000	9	0.134047	0.129135	0.039519
-0.131300	18	0.150534	0.139239	0.042720
-0.130600	9	0.145693	0.135450	0.041650
-0.129900	9	0.142185	0.124084	0.040469
-0.129200	9	0.160567	0.174599	0.029977
-0.128500	9	0.155656	0.139239	0.031575
-0.127800	9	0.156217	0.145553	0.049667
-0.127100	9	0.153972	0.153130	0.040961
-0.126400	9	0.149482	0.134187	0.038758
-0.125700	18	0.156217	0.150605	0.042307
-0.125000	9	0.152850	0.149342	0.037580
-0.124300	9	0.151867	0.164496	0.052894
-0.123600	9	0.150043	0.160708	0.044051
-0.122900	9	0.156919	0.179651	0.045476
-0.122200	9	0.164637	0.144290	0.048275
-0.121500	9	0.145693	0.143027	0.039267
-0.120800	9	0.148780	0.131661	0.041746
-0.120100	18	0.151096	0.146816	0.040743
-0.119400	9	0.139800	0.113981	0.040378
-0.118700	9	0.156077	0.155656	0.052814
-0.118000	9	0.152709	0.156919	0.042403
-0.117300	9	0.154674	0.156919	0.042979
-0.116600	9	0.142466	0.136713	0.036071
-0.115900	9	0.145553	0.134187	0.038920
-0.115200	10	0.155530	0.146816	0.048025
-0.114500	17	0.141393	0.125347	0.044110
-0.113800	9	0.157621	0.153130	0.036452
-0.113100	9	0.154674	0.140501	0.036143
-0.112400	9	0.152709	0.188491	0.049713
-0.111700	9	0.151306	0.143027	0.041173
-0.111000	9	0.147798	0.155656	0.038928
-0.110300	9	0.157340	0.134187	0.046018
-0.109600	10	0.157929	0.135450	0.049113
-0.108900	17	0.145479	0.145553	0.038360
-0.108200	9	0.155656	0.169548	0.044828
-0.107500	9	0.150043	0.134187	0.048752
-0.106800	9	0.145693	0.150605	0.048637
-0.106100	9	0.141343	0.121558	0.047986
-0.105400	9	0.146816	0.136713	0.038829
-0.104700	9	0.157901	0.136713	0.042908
-0.104000	15	0.144206	0.163233	0.040548
-0.103300	12	0.139765	0.137976	0.054188
-0.102600	9	0.163935	0.159445	0.032836
-0.101900	9	0.148921	0.145553	0.039265
-0.101200	9	0.136151	0.137976	0.040944
-0.100500	9	0.141203	0.156919	0.038985
-0.099800	9	0.147097	0.124084	0.034804
-0.099100	9	0.143448	0.137976	0.040193
-0.098400	15	0.146058	0.144290	0.040504
-0.097700	12	0.159129	0.146816	0.038703
-0.097000	9	0.147097	0.150605	0.032947
-0.096300	9	0.143308	0.126610	0.037491
-0.095600	9	0.143027	0.139239	0.036500
-0.094900	9	0.142326	0.155656	0.045853
-0.094200	9	0.143588	0.137976	0.046030
-0.093500	9	0.152008	0.149342	0.044889
-0.092800	16	0.153130	0.136713	0.042014
-0.092100	11	0.147620	0.149342	0.043835
-0.091400	9	0.142185	0.127873	0.038213
-0.090700	9	0.143168	0.145553	0.038386
-0.090000	9	0.146535	0.167022	0.037628
-0.089300	9	0.145272	0.135450	0.035440
-0.088600	9	0.147377	0.134187	0.041703
-0.087900	9	0.136572	0.149342	0.029608
-0.087200	16	0.140738	0.132293	0.042885
-0.086500	11	0.140846	0.143027	0.041145
-0.085800	9	0.142606	0.149342	0.046440
-0.085100	9	0.154113	0.149342	0.043053
-0.084400	9	0.143588	0.126610	0.033714
-0.083700	9	0.144711	0.132924	0.042423
-0.083000	9	0.140080	0.129135	0.050907
-0.082300	9	0.152429	0.156919	0.033530
-0.081600	18	0.149482	0.139870	0.044572
-0.080900	9	0.152850	0.153130	0.040613
-0.080200	9	0.138397	0.131661	0.036286
-0.079500	9	0.140221	0.126610	0.037154
-0.078800	9	0.138116	0.154393	0.048710
-0.078100	9	0.149903	0.153130	0.058718
-0.077400	9	0.147517	0.146816	0.038925
-0.076700	9	0.149622	0.149342	0.046129
-0.076000	18	0.140361	0.131661	0.039646
-0.075300	9	0.129837	0.140501	0.037398
-0.074600	9	0.143027	0.151867	0.046068
-0.073900	9	0.134608	0.124084	0.039386
-0.073200	9	0.143308	0.129135	0.046913
-0.072500	9	0.162251	0.159445	0.024674
-0.071800	9	0.148640	0.129135	0.051005
-0.071100	9	0.124926	0.125347	0.042159
-0.070400	18	0.140712	0.142396	0.043443
-0.069700	9	0.140501	0.136713	0.039052
-0.069000	9	0.146535	0.140501	0.043475
-0.068300	9	0.140922	0.144290	0.042054
-0.067600	9	0.133766	0.134187	0.045417
-0.066900	9	0.134468	0.117769	0.047845
-0.066200	9	0.130258	0.126610	0.044834
-0.065500	9	0.134748	0.134187	0.044551
-0.064800	18	0.145904	0.141133	0.044842
-0.064100	9	0.134889	0.131661	0.041117
-0.063400	9	0.125206	0.103878	0.052377
-0.062700	9	0.131381	0.116507	0.042251
-0.062000	9	0.146395	0.151867	0.056047
-0.061300	9	0.148359	0.148079	0.047004
-0.060600	9	0.140501	0.149342	0.041533
-0.059900	9	0.140080	0.125347	0.039129
-0.059200	18	0.137905	0.127241	0.053591
-0.058500	9	0.134889	0.115244	0.051334
-0.057800	9	0.131381	0.124084	0.047848
-0.057100	9	0.150885	0.134187	0.048170
-0.056400	9	0.170951	0.177125	0.072171
-0.055700	9	0.133766	0.132924	0.042004
-0.055000	9	0.130679	0.129135	0.053777
-0.054300	10	0.133682	0.141764	0.042536
-0.053600	17	0.136193	0.135450	0.047674
-0.052900	9	0.151166	0.153130	0.045464
-0.052200	9	0.130118	0.122821	0.043094
-0.051500	9	0.139379	0.144290	0.062972
-0.050800	9	0.138116	0.132924	0.053213
-0.050100	9	0.128434	0.111455	0.053062
-0.049400	9	0.133485	0.143027	0.047575
-0.048700	10	0.140628	0.149342	0.040375
-0.048000	17	0.132627	0.120295	0.051847
-0.047300	9	0.141905	0.154393	0.044846
-0.046600	9	0.126048	0.120295	0.052183
-0.045900	9	0.134047	0.113981	0.045015
-0.045200	9	0.132924	0.120295	0.051067
-0.044500	9	0.136572	0.129135	0.042882
-0.043800	9	0.136572	0.144290	0.041076
-0.043100	15	0.128967	0.141764	0.050750
-0.042400	12	0.133450	0.124715	0.045968
-0.041700	9	0.140361	0.125347	0.058420
-0.041000	9	0.133345	0.127873	0.041194
-0.040300	9	0.131381	0.131661	0.035093
-0.039600	9	0.131661	0.136713	0.041220
-0.038900	9	0.127452	0.120295	0.050715
-0.038200	9	0.127031	0.103878	0.046164
-0.037500	15	0.118611	0.102615	0.041204
-0.036800	12	0.128293	0.112086	0.041905
-0.036100	9	0.129276	0.144290	0.042704
-0.035400	9	0.113840	0.124084	0.045865
-0.034700	9	0.116086	0.116507	0.046978
-0.034000	9	0.124224	0.136713	0.045325
-0.033300	9	0.112578	0.084934	0.043261
-0.032600	9	0.120856	0.124084	0.036993
-0.031900	16	0.130951	0.122190	0.039565
-0.031200	11	0.112373	0.115244	0.044686
-0.030500	9	0.116787	0.110192	0.051142
-0.029800	9	0.119453	0.129135	0.041949
-0.029100	9	0.115805	0.103878	0.049352
-0.028400	9	0.109069	0.096300	0.044185
-0.027700	9	0.118892	0.111455	0.032545
-0.027000	9	0.112157	0.126610	0.052373
-0.026300	16	0.105772	0.092512	0.052070
-0.025600	11	0.113407	0.111455	0.049739
-0.024900	9	0.108087	0.127873	0.039296
-0.024200	9	0.103737	0.096300	0.037204
-0.023500	9	0.096721	0.083671	0.041181
-0.022800	9	0.105702	0.116507	0.041091
-0.022100	9	0.093494	0.093774	0.050648
-0.021400	9	0.082268	0.071042	0.044806
-0.020700	16	0.100326	0.087460	0.045951
-0.020000	11	0.085738	0.081146	0.029115
-0.019300	9	0.079181	0.086197	0.036839
-0.018600	9	0.073709	0.074831	0.042069
-0.017900	9	0.072305	0.079883	0.041775
-0.017200	9	0.072446	0.060939	0.041231
-0.016500	9	0.073709	0.081146	0.040581
-0.015800	9	0.062623	0.058414	0.042033
-0.015100	16	0.042707	0.033787	0.038873
-0.014400	11	0.031205	0.028104	0.045486
-0.013700	9	0.024036	0.016738	0.038006
-0.013000	9	0.000887	-0.018619	0.052846
-0.012300	9	0.016460	0.028104	0.039553
-0.011600	9	-0.010620	-0.026195	0.035036
-0.010900	9	-0.019179	-0.031246	0.030672
-0.010200	9	-0.040645	-0.035033	0.044104
-0.009500	18	-0.062741	-0.067231	0.043393
-0.008800	9	-0.083575	-0.099428	0.037598
-0.008100	9	-0.114019	-0.105742	0.035995
-0.007400	9	-0.129311	-0.132257	0.030063
-0.006700	9	-0.153862	-0.143621	0.034525
-0.006000	9	-0.194127	-0.201703	0.040269
-0.005300	9	-0.229341	-0.247158	0.039001
-0.004600	9	-0.261889	-0.290088	0.051375
-0.003900	18	-0.330002	-0.339331	0.040295
-0.003200	9	-0.413406	-0.426454	0.041182
-0.002500	9	-0.490989	-0.476960	0.046172
-0.001800	9	-0.558470	-0.574183	0.041247
-0.001100	9	-0.645593	-0.682771	0.061544
-0.000400	9	-0.739590	-0.763580	0.047352
0.000300	9	-0.869642	-0.867117	0.040088
0.001000	10	-1.027852	-1.009165	0.084825
0.001700	17	-1.254675	-1.269901	0.103147
0.002400	9	-1.563817	-1.552734	0.062358
0.003100	9	-1.810874	-1.812838	0.078042
0.003800	9	-2.118118	-2.128500	0.080747
0.004500	9	-2.459313	-2.446686	0.107317
0.005200	9	-2.888612	-2.925229	0.107073
0.005900	9	-3.391987	-3.425237	0.111530
0.006600	10	-4.086232	-4.078656	0.290419
0.007300	17	-5.175486	-5.280064	0.488308
0.008000	9	-6.644843	-6.686652	0.251236
0.008700	9	-7.884340	-7.965712	0.271148
0.009400	9	-9.097180	-9.167748	0.235780
0.010100	9	-10.243102	-10.312968	0.245129
0.010800	9	-11.539559	-11.614756	0.274442
0.011500	9	-13.046736	-13.104680	0.334329
0.012200	10	-14.778820	-14.682984	0.530288
0.012900	17	-16.146317	-16.176696	0.497228
0.013600	9	-17.117646	-17.099688	0.388691
0.014300	9	-17.949870	-17.871164	0.444859
0.015000	9	-19.051599	-18.973456	0.510198
0.015700	9	-20.046142	-19.955792	0.528330
0.016400	9	-20.265000	-20.198220	0.499973
0.017100	9	-20.343565	-20.229788	0.471783
0.017800	15	-21.494621	-21.260104	0.840306
0.018500	12	-23.516874	-23.805598	0.822248
0.019200	9	-23.844601	-23.861156	0.447388
0.019900	9	-22.845988	-22.819472	0.456448
0.020600	9	-22.033407	-22.018956	0.419425
0.021300	9	-21.558652	-21.524000	0.361443
0.022000	9	-21.364064	-21.308088	0.351940
0.022700	9	-20.976852	-20.916668	0.399301
0.023400	15	-20.081805	-20.034076	0.446252
0.024100	12	-19.299953	-19.244922	0.287796
0.024800	9	-19.682501	-19.661596	0.311185
0.025500	9	-19.797261	-19.734832	0.345160
0.026200	9	-19.509939	-19.579524	0.352644
0.026900	9	-18.534055	-18.618652	0.314406
0.027600	9	-17.821500	-17.859800	0.217471
0.028300	9	-17.577530	-17.573180	0.151175
0.029000	15	-17.362655	-17.356004	0.163323
0.029700	12	-16.952591	-16.957010	0.161326
0.030400	9	-16.633351	-16.617356	0.182841
0.031100	9	-16.554085	-16.511296	0.188508
0.031800	9	-16.561801	-16.498668	0.189294
0.032500	9	-16.691854	-16.635036	0.175480
0.033200	9	-17.082012	-17.032768	0.186426
0.033900	9	-17.715720	-17.688080	0.227933
0.034600	16	-17.401777	-17.351586	0.485474
0.035300	11	-16.637216	-16.584528	0.276865
0.036000	9	-16.729733	-16.676704	0.304083
0.036700	9	-15.932864	-15.980984	0.268776
0.037400	9	-15.268432	-15.272640	0.188791
0.038100	9	-15.053642	-15.047888	0.111042
0.038800	9	-15.312484	-15.340824	0.097207
0.039500	9	-15.873519	-15.874924	0.109756
0.040200	16	-16.285440	-16.282126	0.110598
0.040900	11	-16.379062	-16.363564	0.137402
0.041600	9	-16.783185	-16.801704	0.115827
0.042300	9	-17.501210	-17.475956	0.142431
0.043000	9	-18.077958	-18.141372	0.137856
0.043700	9	-18.262585	-18.232280	0.185452
0.044400	9	-18.507819	-18.550468	0.184116
0.045100	9	-19.354913	-19.368660	0.194106
0.045800	16	-20.411608	-20.358576	0.348297
0.046500	11	-20.973256	-21.012628	0.241115
0.047200	9	-20.794330	-20.781564	0.200265
0.047900	9	-20.684199	-20.720956	0.171751
0.048600	9	-20.811867	-20.866160	0.151449
0.049300	9	-21.075058	-21.098488	0.193392
0.050000	9	-21.063553	-21.047980	0.262418
0.050700	9	-20.578838	-20.556812	0.331017
0.051400	16	-19.710840	-19.699476	0.342582
0.052100	11	-19.177888	-19.255024	0.284554
0.052800	9	-19.364174	-19.424220	0.256985
0.053500	9	-19.049073	-19.015120	0.364297
0.054200	9	-18.427711	-18.422940	0.378735
0.054900	9	-17.314900	-17.299188	0.412075
0.055600	9	-16.257504	-16.199424	0.339170
0.056300	10	-15.651181	-15.631230	0.250564
0.057000	15	-14.577428	-14.422880	0.648018
0.057700	11	-12.418487	-12.523860	0.584573
0.058400	9	-10.669596	-10.757420	0.385917
0.059100	9	-9.367247	-9.456896	0.310067
0.059800	9	-8.266360	-8.353344	0.301154
0.060500	9	-7.158880	-7.278832	0.296180
0.061200	9	-6.049014	-6.147500	0.269408
0.061900	10	-5.006070	-5.097612	0.276997
0.062600	17	-3.859661	-3.711857	0.376065
0.063300	9	-2.968019	-3.051494	0.154655
0.064000	9	-2.481900	-2.547698	0.133560
0.064700	9	-2.089498	-2.162591	0.118737
0.065400	9	-1.745778	-1.776222	0.096065
0.066100	9	-1.466172	-1.476975	0.086200
0.066800	9	-1.230198	-1.228234	0.078790
0.067500	10	-1.026842	-1.023054	0.088984
0.068200	17	-0.774647	-0.776206	0.102756
0.068900	9	-0.598875	-0.596911	0.058164
0.069600	9	-0.497162	-0.502212	0.057727
0.070300	9	-0.394887	-0.370897	0.044985
0.071000	9	-0.334000	-0.288825	0.060360
0.071700	9	-0.261749	-0.244633	0.058438
0.072400	9	-0.221204	-0.245895	0.058749
0.073100	10	-0.165212	-0.166980	0.045551
0.073800	17	-0.098314	-0.108267	0.056808
0.074500	9	-0.069685	-0.062812	0.051100
0.075200	9	-0.049342	-0.040084	0.057034
0.075900	9	-0.011882	0.004109	0.048197
0.076600	9	0.011270	0.014212	0.058803
0.077300	9	0.010286	0.011687	0.042974
0.078000	9	0.029509	0.040733	0.044887
0.078700	15	0.046459	0.050836	0.049353
0.079400	12	0.066202	0.076094	0.047263
0.080100	9	0.073288	0.083671	0.056487
0.080800	9	0.083531	0.093774	0.039568
0.081500	9	0.080444	0.083671	0.049434
0.082200	9	0.103316	0.115244	0.044276
0.082900	9	0.105141	0.108929	0.045980
0.083600	9	0.110473	0.112718	0.041047
0.084300	15	0.111034	0.111455	0.049582
0.085000	12	0.131661	0.136081	0.036981
0.085700	9	0.132924	0.146816	0.057158
0.086400	9	0.135169	0.140501	0.034219
0.087100	9	0.131100	0.135450	0.037141
0.087800	9	0.132082	0.153130	0.049139
0.088500	9	0.142466	0.127873	0.052683
0.089200	9	0.132503	0.124084	0.045860
0.089900	15	0.138228	0.136713	0.043913
0.090600	12	0.143027	0.145553	0.036038
0.091300	9	0.137695	0.148079	0.036290
0.092000	9	0.152709	0.165759	0.039494
0.092700	9	0.138537	0.131661	0.046892
0.093400	9	0.142606	0.144290	0.038811
0.094100	9	0.159164	0.148079	0.042259
0.094800	9	0.156779	0.169548	0.038010
0.095500	15	0.144290	0.145553	0.035794
0.096200	12	0.161550	0.173337	0.038007
0.096900	9	0.148500	0.125347	0.040539
0.097600	9	0.149342	0.161971	0.040601
0.098300	9	0.163374	0.167022	0.036744
0.099000	9	0.161690	0.180914	0.038892
0.099700	9	0.153411	0.134187	0.038659
0.100400	9	0.150745	0.155656	0.038141
0.101100	16	0.156919	0.160076	0.045626
0.101800	11	0.158871	0.153130	0.029255
0.102500	9	0.157761	0.161971	0.025356
0.103200	9	0.156498	0.155656	0.045468
0.103900	9	0.176985	0.188491	0.051044
0.104600	9	0.158042	0.154393	0.036009
0.105300	9	0.155516	0.155656	0.046601
0.106000	9	0.156358	0.151867	0.035105
0.106700	16	0.157235	0.170811	0.039767
0.107400	11	0.160019	0.172074	0.042794
0.108100	9	0.149763	0.154393	0.048178
0.108800	9	0.163093	0.185965	0.048242
0.109500	9	0.153832	0.144290	0.045787
0.110200	9	0.153692	0.136713	0.035958
0.110900	9	0.155656	0.165759	0.039976
0.111600	10	0.157677	0.168285	0.034369
0.112300	15	0.159024	0.164496	0.049236
0.113000	11	0.164382	0.175862	0.037388
0.113700	9	0.164777	0.160708	0.043832
0.114400	9	0.162111	0.155656	0.031600
0.115100	9	0.151446	0.145553	0.039346
0.115800	9	0.170249	0.183440	0.038260
0.116500	9	0.168004	0.175862	0.029140
0.117200	10	0.154393	0.144290	0.053906
0.117900	15	0.158940	0.159445	0.041111
0.118600	11	0.176551	0.185965	0.037364
0.119300	9	0.175161	0.182177	0.028940
0.120000	9	0.158322	0.167022	0.045329
0.120700	9	0.148921	0.165759	0.043585
0.121400	9	0.165759	0.156919	0.046922
0.122100	9	0.168846	0.172074	0.037464
0.122800	10	0.144669	0.158813	0.037853
0.123500	15	0.162139	0.151867	0.032630
0.124200	11	0.173222	0.177125	0.049847
0.124900	9	0.157901	0.165759	0.038558
0.125600	9	0.150885	0.144290	0.049214
0.126300	9	0.160006	0.167022	0.040422
0.127000	9	0.173617	0.182177	0.038549
0.127700	9	0.161269	0.167022	0.042181
0.128400	10	0.151236	0.156288	0.045717
0.129100	17	0.167394	0.183440	0.043593
0.129800	9	0.157059	0.179651	0.043183
0.130500	9	0.156077	0.145553	0.040731
0.131200	9	0.172354	0.184703	0.035575
0.131900	9	0.153972	0.155656	0.041991
0.132600	9	0.162532	0.189754	0.046896
0.133300	9	0.158322	0.174599	0.044253
0.134000	15	0.153383	0.165759	0.044061
0.134700	12	0.165128	0.172705	0.038783
0.135400	9	0.159304	0.159445	0.038822
0.136100	9	0.166180	0.191017	0.049509
0.136800	9	0.151025	0.158182	0.055083
0.137500	9	0.166461	0.155656	0.054290
0.138200	9	0.162392	0.175862	0.047313
0.138900	9	0.164356	0.172074	0.038238
0.139600	15	0.157424	0.165759	0.045074
0.140300	12	0.170600	0.165759	0.042907
0.141000	9	0.164216	0.167022	0.047959
0.141700	9	0.165759	0.183440	0.047649
0.142400	9	0.153972	0.153130	0.042465
0.143100	9	0.164496	0.178388	0.034958
0.143800	9	0.171933	0.189754	0.048257
0.144500	9	0.162953	0.156919	0.044230
0.145200	15	0.154730	0.156919	0.050049
0.145900	12	0.172705	0.180914	0.053784
0.146600	9	0.165759	0.187228	0.043711
0.147300	9	0.167864	0.178388	0.040034
0.148000	9	0.165759	0.159445	0.036544
0.148700	9	0.160988	0.179651	0.045260
0.149400	9	0.162391	0.165759	0.044531
0.150100	9	0.160287	0.156919	0.047118
0.150800	15	0.159192	0.149342	0.038552
0.151500	12	0.172389	0.174599	0.034009
0.152200	9	0.164075	0.179651	0.049038
0.152900	9	0.158182	0.136713	0.042586
0.153600	9	0.165759	0.183440	0.043427
0.154300	9	0.172775	0.187228	0.048639
0.155000	9	0.160006	0.163233	0.039919
0.155700	9	0.166040	0.172074	0.038360
0.156400	15	0.174010	0.189754	0.043672
0.157100	12	0.160813	0.156288	0.054977
0.157800	9	0.159585	0.161971	0.043944
0.158500	9	0.171372	0.189754	0.048636
0.159200	9	0.170951	0.175862	0.030359
0.159900	9	0.166741	0.151867	0.040913
0.160600	9	0.177967	0.201120	0.052328
0.161300	9	0.171512	0.179651	0.043268
0.162000	15	0.157340	0.169548	0.037300
0.162700	12	0.165233	0.168916	0.039778
0.163400	9	0.154113	0.148079	0.038044
0.164100	9	0.168846	0.191017	0.036997
0.164800	9	0.179791	0.179651	0.037631
0.165500	9	0.155235	0.141764	0.050350
0.166200	9	0.152288	0.160708	0.047838
0.166900	10	0.167780	0.172074	0.040618
0.167600	15	0.170979	0.185965	0.041824
0.168300	11	0.170696	0.170811	0.034043
0.169000	9	0.158322	0.177125	0.042800
0.169700	9	0.177125	0.170811	0.055847
0.170400	9	0.169969	0.165759	0.048595
0.171100	9	0.168004	0.168285	0.041284
0.171800	9	0.168566	0.155656	0.039860
0.172500	10	0.166770	0.152499	0.036540
0.173200	15	0.178304	0.189754	0.040592
0.173900	11	0.160363	0.150605	0.052307
0.174600	9	0.151166	0.130398	0.045655
0.175300	9	0.173056	0.192280	0.037048
0.176000	9	0.174319	0.177125	0.039637
0.176700	9	0.155656	0.158182	0.056944
0.177400	9	0.169969	0.183440	0.045670
0.178100	10	0.161971	0.180282	0.048367
0.178800	15	0.162055	0.167022	0.043532
0.179500	11	0.177240	0.188491	0.034701
0.180200	9	0.171933	0.175862	0.038103
0.180900	9	0.179791	0.183440	0.052509
0.181600	9	0.176143	0.173337	0.038110
0.182300	9	0.165058	0.177125	0.030526
0.183000	9	0.163233	0.149342	0.042644
0.183700	10	0.166643	0.175231	0.039052
0.184400	15	0.176283	0.197331	0.041440
0.185100	11	0.180569	0.160708	0.045861
0.185800	9	0.169688	0.183440	0.050542
0.186500	9	0.164496	0.180914	0.042281
0.187200	9	0.156638	0.136713	0.040508
0.187900	9	0.175301	0.164496	0.037497
0.188600	9	0.177827	0.179651	0.037488
0.189300	10	0.171316	0.177757	0.039705
0.190000	15	0.176115	0.187228	0.049917
0.190700	11	0.171729	0.179651	0.053398
0.191400	9	0.168987	0.165759	0.045566
0.192100	9	0.174740	0.185965	0.043326
0.192800	9	0.174178	0.185965	0.040944
0.193500	9	0.187088	0.188491	0.044830
0.194200	9	0.169688	0.189754	0.050211
0.194900	15	0.166517	0.184703	0.043755
0.195600	10	0.178514	0.181545	0.049017
0.196300	11	0.175403	0.188491	0.047165
0.197000	9	0.181335	0.185965	0.046820
0.197700	9	0.175722	0.169548	0.048157
0.198400	9	0.160708	0.158182	0.044836
0.199100	9	0.162391	0.183440	0.050928
0.199800	9	0.177125	0.184703	0.042079
0.200500	15	0.170811	0.154393	0.050989
0.201200	12	0.183440	0.199857	0.052571
0.201900	9	0.164917	0.154393	0.051420
0.202600	9	0.161129	0.146816	0.051375
0.203300	9	0.166882	0.177125	0.049575
0.204000	9	0.167864	0.174599	0.047945
0.204700	9	0.181335	0.188491	0.045557
0.205400	9	0.172074	0.159445	0.047556
0.206100	15	0.165928	0.165759	0.050171
0.206800	12	0.172810	0.182808	0.045204
0.207500	9	0.160567	0.169548	0.038256
0.208200	9	0.181054	0.184703	0.041286
0.208900	9	0.171091	0.175862	0.043593
0.209600	9	0.175582	0.193543	0.056931
0.210300	9	0.176704	0.197331	0.045233
0.211000	9	0.164216	0.155656	0.050406
0.211700	15	0.162897	0.160708	0.045898
0.212400	12	0.176915	0.187860	0.048006
0.213100	9	0.166882	0.179651	0.044759
0.213800	9	0.177967	0.182177	0.043581
0.214500	9	0.170811	0.179651	0.046604
0.215200	9	0.163233	0.180914	0.051143
0.215900	9	0.170951	0.173337	0.047273
0.216600	9	0.177125	0.184703	0.043394
0.217300	15	0.172747	0.184703	0.045587
0.218000	12	0.178914	0.177757	0.045477
0.218700	9	0.170670	0.177125	0.048957
0.219400	9	0.156638	0.161971	0.038892
0.220100	9	0.173758	0.172074	0.043037
0.220800	9	0.181335	0.188491	0.047024
0.221500	9	0.188772	0.196069	0.047793
0.222200	10	0.171569	0.160708	0.051287
0.222900	14	0.169909	0.158813	0.040985
0.223600	12	0.171232	0.163865	0.044073
0.224300	9	0.167583	0.163233	0.046752
0.225000	9	0.184282	0.198594	0.039798
0.225700	9	0.187228	0.202383	0.046371
0.226400	9	0.169408	0.164496	0.039357
0.227100	9	0.158182	0.163233	0.045073
0.227800	10	0.171947	0.180914	0.041335
0.228500	14	0.173337	0.176494	0.036427
0.229200	12	0.173021	0.155656	0.048128
0.229900	9	0.174178	0.184703	0.036742
0.230600	9	0.181195	0.182177	0.035828
0.231300	9	0.162111	0.175862	0.047153
0.232000	9	0.161690	0.153130	0.041998
0.232700	9	0.173196	0.175862	0.041140
0.233400	10	0.184829	0.189754	0.046386
0.234100	15	0.174599	0.182177	0.044989
0.234800	11	0.173796	0.196069	0.049811
0.235500	9	0.183159	0.197331	0.048918
0.236200	9	0.165479	0.146816	0.041275
0.236900	9	0.178388	0.170811	0.038250
0.237600	9	0.180212	0.196069	0.037606
0.238300	9	0.177125	0.164496	0.039526
0.239000	10	0.171947	0.170811	0.041558
0.239700	15	0.171316	0.179651	0.035519
0.240400	11	0.160708	0.149342	0.033904
0.241100	9	0.178388	0.191017	0.042810
0.241800	9	0.175722	0.185965	0.044113
0.242500	9	0.174178	0.172074	0.041635
0.243200	9	0.165058	0.177125	0.038729
0.243900	9	0.168004	0.165759	0.035305
0.244600	10	0.166643	0.173968	0.033840
0.245300	15	0.175947	0.174599	0.044088
0.246000	11	0.173681	0.170811	0.042725
0.246700	9	0.177686	0.182177	0.052030
0.247400	9	0.180072	0.192280	0.038008
0.248100	9	0.167303	0.164496	0.030570
0.248800	9	0.167724	0.167022	0.043618
0.249500	9	0.182036	0.177125	0.034227
0.250200	10	0.185587	0.197331	0.038488
0.250900	15	0.181082	0.196069	0.041615
0.251600	11	0.152441	0.153130	0.040906
0.252300	9	0.185404	0.175862	0.038674
0.253000	9	0.175582	0.193543	0.044938
0.253700	9	0.179230	0.174599	0.042037
0.254400	9	0.181054	0.191017	0.040959
0.255100	9	0.176704	0.188491	0.040223
0.255800	15	0.178220	0.184703	0.046119
0.256500	10	0.176620	0.179651	0.031910
0.257200	11	0.172992	0.168285	0.044032
0.257900	9	0.174880	0.156919	0.045205
0.258600	9	0.187088	0.212486	0.047636
0.259300	9	0.186667	0.187228	0.026758
0.260000	9	0.167443	0.183440	0.035765
0.260700	9	0.171091	0.161971	0.042668
0.261400	15	0.179483	0.191017	0.043264
0.262100	10	0.184955	0.182177	0.045072
0.262800	11	0.172763	0.188491	0.045081
0.263500	9	0.168846	0.170811	0.038301
0.264200	9	0.177125	0.189754	0.031631
0.264900	9	0.167303	0.170811	0.040674
0.265600	9	0.178248	0.191017	0.036507
0.266300	9	0.170811	0.174599	0.051129
0.267000	15	0.187565	0.196069	0.055997
0.267700	10	0.176115	0.173968	0.037877
0.268400	11	0.156919	0.174599	0.041816
0.269100	9	0.166601	0.151867	0.042860
0.269800	9	0.174880	0.199857	0.048605
0.270500	9	0.182457	0.184703	0.044370
0.271200	9	0.167583	0.191017	0.045667
0.271900	9	0.171232	0.167022	0.048137
0.272600	15	0.178220	0.169548	0.036928
0.273300	12	0.168495	0.161339	0.043240
0.274000	9	0.180212	0.180914	0.048325
0.274700	9	0.176003	0.178388	0.044715
0.275400	9	0.172916	0.158182	0.043577
0.276100	9	0.179370	0.192280	0.039860
0.276800	9	0.172074	0.177125	0.034189
0.277500	10	0.165507	0.171442	0.037352
0.278200	14	0.184252	0.182808	0.046093
0.278900	12	0.174178	0.179651	0.043682
0.279600	9	0.171653	0.175862	0.039852
0.280300	9	0.158463	0.167022	0.041939
0.281000	9	0.172635	0.163233	0.036588
0.281700	9	0.170249	0.173337	0.042711
0.282400	9	0.186386	0.185965	0.052615
0.283100	10	0.181545	0.199226	0.044296
0.283800	14	0.177125	0.187860	0.032570
0.284500	12	0.168916	0.176494	0.033443
0.285200	9	0.177686	0.197331	0.042008
0.285900	9	0.177125	0.168285	0.038701
0.286600	9	0.182457	0.178388	0.051694
0.287300	9	0.174038	0.184703	0.045398
0.288000	9	0.179651	0.207435	0.042984
0.288700	10	0.173463	0.173337	0.029813
0.289400	14	0.176674	0.176494	0.027856
0.290100	12	0.168180	0.158813	0.041795
0.290800	9	0.175862	0.177125	0.045472
0.291500	9	0.176143	0.180914	0.040709
0.292200	9	0.175301	0.178388	0.031693
0.292900	9	0.171933	0.161971	0.032468
0.293600	9	0.169688	0.169548	0.026103
0.294300	10	0.182429	0.183440	0.031093
0.295000	15	0.172747	0.177125	0.036037
0.295700	11	0.173566	0.187228	0.043153
0.296400	9	0.169969	0.165759	0.038984
0.297100	9	0.160708	0.155656	0.026597
0.297800	9	0.188912	0.193543	0.032488
0.298500	9	0.189614	0.183440	0.033763
0.299200	9	0.172214	0.172074	0.048385
0.299900	10	0.169169	0.170179	0.040782
