x 20.000000
y 3.000000
r 127.000000
dw .254
w 31.250717
wstd 0.030041
# theta(rad)	count	mean(uA)	median(uA)	std dev(uA)
-0.300000	9	0.216696	0.213749	0.034708
-0.299300	8	0.230324	0.240901	0.034588
-0.298600	8	0.222589	0.221958	0.046723
-0.297900	8	0.226536	0.232061	0.026260
-0.297200	8	0.228272	0.243427	0.033107
-0.296500	9	0.230026	0.233955	0.037546
-0.295800	10	0.228399	0.240901	0.030536
-0.295100	12	0.221853	0.223221	0.038338
-0.294400	9	0.226378	0.220063	0.051736
-0.293700	8	0.228430	0.253530	0.047101
-0.293000	8	0.224010	0.227009	0.037450
-0.292300	8	0.224168	0.219432	0.035774
-0.291600	8	0.228272	0.242164	0.039104
-0.290900	8	0.230167	0.243427	0.035748
-0.290200	11	0.243714	0.264265	0.042982
-0.289500	11	0.217423	0.215012	0.038375
-0.288800	10	0.216906	0.221326	0.048945
-0.288100	8	0.227957	0.225115	0.042343
-0.287400	8	0.230956	0.227641	0.040810
-0.286700	8	0.233797	0.244058	0.031213
-0.286000	8	0.232850	0.235218	0.041935
-0.285300	8	0.227957	0.234587	0.042909
-0.284600	9	0.238305	0.240270	0.037854
-0.283900	12	0.240059	0.249110	0.030951
-0.283200	11	0.222934	0.222589	0.040855
-0.282500	8	0.233324	0.242795	0.035954
-0.281800	8	0.236165	0.239638	0.036775
-0.281100	8	0.225746	0.223221	0.045687
-0.280400	8	0.223221	0.217538	0.037479
-0.279700	8	0.237428	0.256687	0.050226
-0.279000	8	0.231587	0.244058	0.047132
-0.278300	11	0.239351	0.257950	0.043295
-0.277600	12	0.222484	0.234587	0.048468
-0.276900	9	0.220905	0.209960	0.043893
-0.276200	8	0.234271	0.227641	0.041391
-0.275500	8	0.239165	0.248478	0.044199
-0.274800	8	0.232850	0.244058	0.040763
-0.274100	8	0.242006	0.254793	0.037029
-0.273400	8	0.242480	0.242795	0.040955
-0.272700	10	0.248100	0.259213	0.048695
-0.272000	12	0.236481	0.244690	0.041036
-0.271300	10	0.225368	0.227641	0.043407
-0.270600	8	0.234271	0.254161	0.047319
-0.269900	8	0.237112	0.248478	0.039216
-0.269200	8	0.244216	0.247216	0.039678
-0.268500	8	0.234587	0.231429	0.039287
-0.267800	8	0.241217	0.248478	0.039684
-0.267100	9	0.241392	0.254161	0.043624
-0.266400	12	0.247426	0.254793	0.036260
-0.265700	11	0.228444	0.216275	0.038799
-0.265000	8	0.233955	0.245953	0.050207
-0.264300	8	0.249426	0.266790	0.042784
-0.263600	8	0.240585	0.249741	0.042150
-0.262900	8	0.231587	0.244058	0.046141
-0.262200	8	0.237270	0.255424	0.041068
-0.261500	8	0.241690	0.259213	0.043585
-0.260800	11	0.254736	0.257950	0.042560
-0.260100	13	0.223269	0.235218	0.034106
-0.259400	8	0.238533	0.247216	0.042588
-0.258700	8	0.248794	0.264896	0.038262
-0.258000	8	0.242480	0.251004	0.031941
-0.257300	8	0.237428	0.237744	0.045164
-0.256600	8	0.242322	0.262370	0.041204
-0.255900	8	0.245953	0.249110	0.041532
-0.255200	9	0.243076	0.255424	0.048170
-0.254500	15	0.236565	0.241533	0.040078
-0.253800	8	0.243111	0.257950	0.040465
-0.253100	8	0.245163	0.249741	0.042987
-0.252400	8	0.242795	0.247847	0.034964
-0.251700	8	0.235376	0.242795	0.041768
-0.251000	8	0.237428	0.239638	0.033560
-0.250300	8	0.233640	0.227009	0.039275
-0.249600	8	0.249584	0.257950	0.034214
-0.248900	14	0.255695	0.269948	0.033379
-0.248200	10	0.237618	0.220695	0.044289
-0.247500	8	0.240270	0.249741	0.045046
-0.246800	8	0.243743	0.255424	0.041178
-0.246100	8	0.240901	0.239638	0.028722
-0.245400	8	0.244058	0.259845	0.046191
-0.244700	8	0.253372	0.262370	0.039846
-0.244000	8	0.251478	0.256687	0.045527
-0.243300	11	0.250028	0.247847	0.032623
-0.242600	13	0.243864	0.232692	0.042415
-0.241900	8	0.242795	0.243427	0.045613
-0.241200	8	0.256056	0.253530	0.036301
-0.240500	8	0.250846	0.259845	0.033484
-0.239800	8	0.244216	0.244058	0.034692
-0.239100	8	0.247847	0.242164	0.031861
-0.238400	8	0.245479	0.253530	0.041567
-0.237700	8	0.260950	0.268053	0.041454
-0.237000	16	0.246268	0.255424	0.029810
-0.236300	8	0.243901	0.242795	0.037868
-0.235600	8	0.254004	0.255424	0.037620
-0.234900	8	0.243743	0.251636	0.028921
-0.234200	8	0.243427	0.255424	0.034267
-0.233500	8	0.249741	0.263002	0.036252
-0.232800	8	0.258739	0.278788	0.042339
-0.232100	8	0.246111	0.257319	0.038564
-0.231400	16	0.251004	0.267422	0.034308
-0.230700	8	0.258424	0.257319	0.041329
-0.230000	8	0.242480	0.263002	0.037141
-0.229300	8	0.258108	0.254793	0.015942
-0.228600	8	0.255582	0.266790	0.033296
-0.227900	8	0.256529	0.271211	0.035375
-0.227200	8	0.250689	0.252267	0.035156
-0.226500	8	0.082411	0.016739	0.130075
-0.225800	8	0.070727	0.072305	0.042793
-0.225100	16	0.217380	0.215643	0.034235
-0.224400	8	0.241533	0.250373	0.039170
-0.223700	8	0.255740	0.264265	0.037521
-0.223000	8	0.254477	0.259844	0.025910
-0.222300	8	0.236481	0.251004	0.030662
-0.221600	8	0.241690	0.244690	0.031619
-0.220900	8	0.253372	0.257319	0.037137
-0.220200	8	0.258424	0.261107	0.025594
-0.219500	16	0.248715	0.259844	0.038070
-0.218800	8	0.254161	0.259213	0.014190
-0.218100	8	0.258108	0.271842	0.032367
-0.217400	8	0.244374	0.245953	0.032437
-0.216700	8	0.248005	0.256687	0.033416
-0.216000	8	0.246584	0.261107	0.033544
-0.215300	8	0.257161	0.264265	0.034844
-0.214600	8	0.259844	0.264896	0.022688
-0.213900	15	0.242206	0.251636	0.036298
-0.213200	9	0.251355	0.261739	0.027280
-0.212500	8	0.266790	0.278788	0.028604
-0.211800	8	0.252741	0.259845	0.029036
-0.211100	8	0.252741	0.256687	0.039218
-0.210400	8	0.246584	0.254793	0.031534
-0.209700	8	0.250215	0.251636	0.023940
-0.209000	8	0.254793	0.257950	0.031993
-0.208300	11	0.243370	0.241533	0.030364
-0.207600	13	0.266985	0.265527	0.038025
-0.206900	8	0.242638	0.255424	0.023023
-0.206200	8	0.249899	0.252899	0.025835
-0.205500	8	0.251162	0.256687	0.022493
-0.204800	8	0.242480	0.250373	0.029904
-0.204100	8	0.246584	0.254793	0.035563
-0.203400	8	0.265527	0.261107	0.016730
-0.202700	9	0.246163	0.241533	0.035760
-0.202000	15	0.243553	0.246584	0.027890
-0.201300	8	0.249268	0.247847	0.043595
-0.200600	8	0.252109	0.254793	0.029067
-0.199900	8	0.254161	0.253530	0.036323
-0.199200	8	0.257161	0.268053	0.025297
-0.198500	8	0.257477	0.266790	0.029805
-0.197800	8	0.251320	0.250373	0.026728
-0.197100	8	0.242480	0.256687	0.036124
-0.196400	13	0.250470	0.246584	0.031564
-0.195700	11	0.255195	0.265527	0.028565
-0.195000	8	0.249741	0.253530	0.031057
-0.194300	8	0.262844	0.263633	0.017112
-0.193600	8	0.253372	0.253530	0.017623
-0.192900	8	0.242480	0.245953	0.029134
-0.192200	8	0.248636	0.249110	0.032036
-0.191500	8	0.263317	0.266790	0.018439
-0.190800	12	0.258792	0.259213	0.033203
-0.190100	12	0.255214	0.258582	0.022472
-0.189400	8	0.259213	0.259213	0.026931
-0.188700	8	0.255109	0.259845	0.018622
-0.188000	8	0.252109	0.257319	0.025194
-0.187300	8	0.254793	0.252267	0.027912
-0.186600	8	0.256372	0.257319	0.025880
-0.185900	8	0.245163	0.251004	0.020220
-0.185200	10	0.246710	0.256687	0.031620
-0.184500	12	0.248584	0.250373	0.022670
-0.183800	10	0.250878	0.247216	0.021081
-0.183100	8	0.250373	0.250373	0.011964
-0.182400	8	0.243269	0.230167	0.031880
-0.181700	8	0.252583	0.251004	0.015707
-0.181000	8	0.245321	0.234587	0.020117
-0.180300	8	0.237744	0.239638	0.023601
-0.179600	9	0.266790	0.260476	0.037112
-0.178900	12	0.248373	0.249741	0.024458
-0.178200	11	0.253932	0.250373	0.023397
-0.177500	8	0.245321	0.241533	0.021534
-0.176800	8	0.250373	0.246584	0.024276
-0.176100	8	0.257634	0.267422	0.034370
-0.175400	8	0.230482	0.245953	0.034871
-0.174700	8	0.248636	0.244690	0.026165
-0.174000	8	0.263317	0.264265	0.041578
-0.173300	12	0.247110	0.244690	0.021895
-0.172600	11	0.253358	0.254161	0.019306
-0.171900	9	0.242515	0.247847	0.032985
-0.171200	8	0.259371	0.256056	0.034270
-0.170500	8	0.257319	0.238375	0.036285
-0.169800	8	0.243901	0.244058	0.021851
-0.169100	8	0.250531	0.250373	0.020880
-0.168400	8	0.258108	0.264265	0.024695
-0.167700	11	0.249110	0.255424	0.031831
-0.167000	10	0.261739	0.261739	0.026133
-0.166300	11	0.245321	0.242795	0.022878
-0.165600	8	0.245953	0.241533	0.043216
-0.164900	8	0.252741	0.251004	0.021887
-0.164200	8	0.253372	0.254161	0.022100
-0.163500	8	0.245795	0.252267	0.027056
-0.162800	8	0.248005	0.251636	0.039803
-0.162100	10	0.245953	0.248478	0.018895
-0.161400	11	0.249799	0.247847	0.021723
-0.160700	10	0.239891	0.237112	0.018902
-0.160000	9	0.245742	0.250373	0.037544
-0.159300	8	0.246900	0.256687	0.029236
-0.158600	8	0.244532	0.247847	0.025719
-0.157900	8	0.258739	0.260476	0.018224
-0.157200	8	0.235376	0.232061	0.019095
-0.156500	9	0.238866	0.250373	0.032337
-0.155800	11	0.254965	0.251636	0.022969
-0.155100	10	0.254919	0.254161	0.022366
-0.154400	10	0.233829	0.234587	0.029463
-0.153700	8	0.255109	0.262370	0.026018
-0.153000	8	0.245795	0.245321	0.015773
-0.152300	8	0.248794	0.261739	0.032730
-0.151600	8	0.247847	0.251636	0.016099
-0.150900	8	0.248163	0.246584	0.020701
-0.150200	11	0.244288	0.257950	0.030599
-0.149500	10	0.243427	0.251004	0.028800
-0.148800	10	0.239891	0.247847	0.028138
-0.148100	9	0.239287	0.249110	0.025894
-0.147400	8	0.248005	0.254161	0.029008
-0.146700	8	0.250846	0.261739	0.034476
-0.146000	8	0.240428	0.248478	0.035487
-0.145300	8	0.244058	0.245321	0.024756
-0.144600	10	0.246332	0.247847	0.017470
-0.143900	11	0.249340	0.255424	0.030868
-0.143200	10	0.238754	0.245321	0.034106
-0.142500	9	0.248408	0.245321	0.025083
-0.141800	8	0.226694	0.239638	0.039097
-0.141100	8	0.230167	0.230167	0.035242
-0.140400	8	0.239638	0.242164	0.027020
-0.139700	8	0.233008	0.235218	0.020517
-0.139000	10	0.238881	0.244058	0.030973
-0.138300	10	0.251004	0.261107	0.033247
-0.137600	10	0.237618	0.249110	0.034161
-0.136900	9	0.234376	0.249110	0.025068
-0.136200	9	0.234938	0.228904	0.023640
-0.135500	8	0.236165	0.247216	0.031646
-0.134800	8	0.237744	0.239007	0.031648
-0.134100	8	0.253530	0.260476	0.027057
-0.133400	9	0.241252	0.245321	0.027098
-0.132700	10	0.255551	0.264896	0.026336
-0.132000	10	0.245069	0.249741	0.027546
-0.131300	10	0.240901	0.243427	0.031039
-0.130600	9	0.235779	0.242795	0.031699
-0.129900	8	0.237428	0.239638	0.029202
-0.129200	8	0.241217	0.249741	0.024167
-0.128500	8	0.233482	0.248478	0.024398
-0.127800	9	0.236060	0.236481	0.023574
-0.127100	10	0.247089	0.257319	0.032243
-0.126400	10	0.241533	0.230167	0.041306
-0.125700	9	0.238305	0.247847	0.029087
-0.125000	10	0.224231	0.239007	0.034112
-0.124300	8	0.238533	0.239638	0.039534
-0.123600	8	0.238691	0.235850	0.027355
-0.122900	8	0.245006	0.241533	0.029515
-0.122200	8	0.242953	0.247847	0.029835
-0.121500	10	0.231935	0.235218	0.034527
-0.120800	10	0.242164	0.240901	0.026958
-0.120100	9	0.236481	0.246584	0.022180
-0.119400	10	0.223221	0.221958	0.035939
-0.118700	9	0.243076	0.232692	0.035927
-0.118000	8	0.229377	0.225746	0.039042
-0.117300	8	0.224957	0.229535	0.041046
-0.116600	8	0.236955	0.240270	0.032920
-0.115900	10	0.229535	0.222589	0.041707
-0.115200	9	0.242375	0.250373	0.038078
-0.114500	10	0.231051	0.237744	0.034875
-0.113800	10	0.218674	0.216275	0.038820
-0.113100	9	0.231289	0.245321	0.029775
-0.112400	8	0.231114	0.227009	0.035008
-0.111700	8	0.216117	0.227009	0.036849
-0.111000	8	0.226220	0.232692	0.042712
-0.110300	9	0.231710	0.228904	0.035763
-0.109600	10	0.237365	0.239007	0.036519
-0.108900	10	0.239007	0.244690	0.039764
-0.108200	9	0.229044	0.236481	0.029739
-0.107500	9	0.219642	0.223852	0.029377
-0.106800	9	0.229325	0.230167	0.037016
-0.106100	8	0.238691	0.245953	0.035145
-0.105400	8	0.236165	0.234587	0.044671
-0.104700	9	0.235078	0.233955	0.027362
-0.104000	9	0.234657	0.228904	0.031055
-0.103300	10	0.225999	0.229535	0.044575
-0.102600	9	0.226799	0.241533	0.033492
-0.101900	10	0.225494	0.223221	0.033294
-0.101200	9	0.222309	0.227641	0.033081
-0.100500	8	0.239480	0.251004	0.038002
-0.099800	8	0.223536	0.232692	0.038929
-0.099100	8	0.216748	0.215643	0.034464
-0.098400	10	0.234082	0.246584	0.037914
-0.097700	10	0.241785	0.259845	0.043093
-0.097000	9	0.225255	0.239007	0.036686
-0.096300	9	0.223992	0.240270	0.039022
-0.095600	9	0.228342	0.235218	0.042740
-0.094900	9	0.219222	0.239007	0.040351
-0.094200	8	0.228430	0.217538	0.045918
-0.093500	8	0.230640	0.245953	0.050341
-0.092800	9	0.229465	0.237744	0.037643
-0.092100	10	0.236986	0.244690	0.041350
-0.091400	10	0.221074	0.230798	0.032941
-0.090700	8	0.231903	0.240270	0.046982
-0.090000	10	0.218548	0.203646	0.039441
-0.089300	9	0.217959	0.197331	0.040294
-0.088600	8	0.233640	0.222589	0.044533
-0.087900	8	0.231429	0.229535	0.041709
-0.087200	9	0.219502	0.231429	0.038569
-0.086500	9	0.223291	0.233955	0.036651
-0.085800	10	0.238375	0.248478	0.047409
-0.085100	9	0.233394	0.237744	0.036051
-0.084400	9	0.218380	0.208697	0.046168
-0.083700	9	0.217538	0.230167	0.029587
-0.083000	9	0.204628	0.199857	0.041736
-0.082300	8	0.213591	0.213749	0.049746
-0.081600	9	0.227781	0.232692	0.039791
-0.080900	9	0.225255	0.223852	0.048102
-0.080200	10	0.221326	0.220063	0.043153
-0.079500	9	0.220063	0.227641	0.038124
-0.078800	9	0.209399	0.206172	0.035150
-0.078100	9	0.203225	0.189754	0.043877
-0.077400	9	0.223571	0.226378	0.041562
-0.076700	8	0.221168	0.232692	0.044208
-0.076000	9	0.223291	0.211223	0.038839
-0.075300	9	0.226799	0.227641	0.034897
-0.074600	9	0.219222	0.233955	0.040483
-0.073900	10	0.217285	0.221326	0.048383
-0.073200	8	0.230956	0.235218	0.035439
-0.072500	10	0.212107	0.198594	0.043613
-0.071800	8	0.222431	0.206172	0.045025
-0.071100	9	0.214451	0.223852	0.039558
-0.070400	8	0.215801	0.225746	0.037902
-0.069700	9	0.213889	0.216275	0.045474
-0.069000	10	0.229535	0.241533	0.045338
-0.068300	9	0.223291	0.236481	0.037260
-0.067600	9	0.225115	0.242795	0.049416
-0.066900	9	0.209399	0.197331	0.043946
-0.066200	9	0.209259	0.202383	0.033735
-0.065500	9	0.199156	0.189754	0.043643
-0.064800	8	0.216275	0.228272	0.051030
-0.064100	9	0.230868	0.227641	0.034101
-0.063400	9	0.219642	0.228904	0.046956
-0.062700	10	0.217538	0.218801	0.035194
-0.062000	9	0.210522	0.222589	0.045304
-0.061300	8	0.211855	0.206172	0.049924
-0.060600	10	0.204025	0.188491	0.042543
-0.059900	8	0.218958	0.222589	0.050891
-0.059200	9	0.204768	0.197331	0.047781
-0.058500	9	0.207575	0.215012	0.039095
-0.057800	9	0.213047	0.206172	0.042478
-0.057100	9	0.206873	0.212486	0.052501
-0.056400	9	0.208417	0.212486	0.051412
-0.055700	9	0.206452	0.199857	0.035828
-0.055000	9	0.204768	0.187228	0.041904
-0.054300	9	0.199296	0.201120	0.037317
-0.053600	9	0.193964	0.192280	0.048497
-0.052900	9	0.214731	0.213749	0.042351
-0.052200	9	0.213889	0.221326	0.053760
-0.051500	9	0.200138	0.184703	0.042859
-0.050800	9	0.207996	0.215012	0.036404
-0.050100	9	0.191719	0.173337	0.044722
-0.049400	9	0.205751	0.209960	0.044582
-0.048700	9	0.198314	0.184703	0.045479
-0.048000	9	0.201260	0.188491	0.049252
-0.047300	8	0.204435	0.177125	0.045455
-0.046600	9	0.196490	0.212486	0.052369
-0.045900	9	0.200980	0.189754	0.052546
-0.045200	10	0.197837	0.177125	0.047937
-0.044500	9	0.199577	0.185965	0.058229
-0.043800	8	0.185808	0.177125	0.050636
-0.043100	10	0.183061	0.169548	0.051501
-0.042400	8	0.199542	0.175231	0.048755
-0.041700	9	0.184282	0.167022	0.039034
-0.041000	9	0.197051	0.191017	0.049626
-0.040300	9	0.209259	0.215012	0.059516
-0.039600	9	0.199577	0.196069	0.038613
-0.038900	9	0.189614	0.179651	0.047037
-0.038200	9	0.183861	0.175862	0.048394
-0.037500	9	0.180212	0.159445	0.049172
-0.036800	9	0.180493	0.150605	0.054987
-0.036100	9	0.175301	0.164496	0.052794
-0.035400	9	0.204768	0.209960	0.054170
-0.034700	9	0.199717	0.178388	0.046258
-0.034000	9	0.181335	0.161971	0.050135
-0.033300	9	0.178528	0.163233	0.045388
-0.032600	9	0.175161	0.156919	0.050852
-0.031900	9	0.167303	0.153130	0.060504
-0.031200	9	0.174880	0.156919	0.051429
-0.030500	8	0.176336	0.163865	0.049374
-0.029800	10	0.180409	0.163865	0.049823
-0.029100	9	0.171512	0.145553	0.061746
-0.028400	9	0.172074	0.143027	0.057223
-0.027700	9	0.175582	0.167022	0.042851
-0.027000	9	0.162532	0.127873	0.054758
-0.026300	8	0.157550	0.137976	0.052812
-0.025600	9	0.167724	0.156919	0.058026
-0.024900	9	0.160146	0.159445	0.050033
-0.024200	9	0.135590	0.111455	0.045815
-0.023500	9	0.166882	0.161971	0.058204
-0.022800	9	0.159866	0.164496	0.053118
-0.022100	10	0.139491	0.124084	0.046315
-0.021400	8	0.150131	0.139239	0.042817
-0.020700	9	0.137274	0.124084	0.050980
-0.020000	9	0.120295	0.095037	0.054234
-0.019300	9	0.125066	0.095037	0.050311
-0.018600	8	0.125189	0.101352	0.065108
-0.017900	10	0.118275	0.096300	0.062714
-0.017200	9	0.111455	0.092512	0.054008
-0.016500	9	0.099247	0.092512	0.052152
-0.015800	9	0.082829	0.087460	0.051616
-0.015100	9	0.071885	0.050836	0.063652
-0.014400	8	0.059519	0.040733	0.056867
-0.013700	10	0.038460	0.024947	0.047565
-0.013000	8	0.053047	0.060308	0.055594
-0.012300	10	0.022929	-0.005361	0.058450
-0.011600	9	0.002009	-0.019882	0.051340
-0.010900	9	-0.018056	-0.033771	0.044851
-0.010200	9	-0.046957	-0.059024	0.052598
-0.009500	9	-0.070387	-0.080489	0.044699
-0.008800	8	-0.103216	-0.106373	0.043758
-0.008100	9	-0.123980	-0.148672	0.062535
-0.007400	9	-0.162561	-0.190339	0.047562
-0.006700	9	-0.194688	-0.190339	0.046067
-0.006000	10	-0.249809	-0.249052	0.049907
-0.005300	8	-0.304608	-0.315972	0.051591
-0.004600	10	-0.374811	-0.380998	0.035415
-0.003900	8	-0.436397	-0.442868	0.037336
-0.003200	9	-0.527886	-0.547668	0.051537
-0.002500	9	-0.625952	-0.628477	0.078209
-0.001800	9	-0.720089	-0.738327	0.061151
-0.001100	9	-0.847616	-0.845652	0.055573
-0.000400	9	-1.010076	-1.019897	0.057603
0.000300	9	-1.193160	-1.194142	0.068501
0.001000	9	-1.413141	-1.401216	0.068196
0.001700	9	-1.655148	-1.672685	0.084102
0.002400	9	-1.961831	-1.937840	0.109006
0.003100	8	-2.309374	-2.307796	0.137223
0.003800	9	-2.732746	-2.714367	0.184556
0.004500	9	-3.202871	-3.199223	0.210801
0.005200	9	-3.858184	-3.780040	0.243462
0.005900	10	-4.684852	-4.651266	0.311771
0.006600	9	-5.736159	-5.864668	0.407181
0.007300	9	-6.893864	-7.127312	0.501396
0.008000	9	-8.401043	-8.461932	0.570611
0.008700	8	-9.855417	-9.933544	0.516766
0.009400	9	-11.273140	-11.229648	0.574373
0.010100	9	-12.756469	-12.743560	0.641391
0.010800	9	-14.864525	-14.501164	0.729016
0.011500	10	-16.942616	-16.753092	0.739289
0.012200	9	-18.372716	-18.332032	0.516938
0.012900	9	-19.279015	-19.249972	0.482153
0.013600	8	-20.374044	-20.378778	0.522215
0.014300	9	-21.820860	-21.988652	0.651344
0.015000	8	-22.958206	-22.900914	0.388814
0.015700	9	-23.145236	-22.977304	0.310805
0.016400	10	-23.540317	-23.429330	0.507819
0.017100	10	-24.731876	-24.260784	0.885890
0.017800	8	-26.427325	-26.402860	0.697238
0.018500	9	-26.599694	-26.622564	0.330205
0.019200	9	-25.621283	-25.585928	0.488699
0.019900	9	-24.573288	-24.628844	0.378518
0.020600	8	-24.060496	-24.069494	0.258980
0.021300	9	-23.817104	-23.819488	0.206182
0.022000	10	-23.459760	-23.420492	0.238228
0.022700	8	-22.802901	-22.811266	0.230982
0.023400	10	-22.313152	-22.282216	0.200435
0.024100	9	-22.358888	-22.303052	0.310284
0.024800	9	-22.369410	-22.429316	0.267013
0.025500	9	-21.678883	-21.796732	0.444315
0.026200	8	-20.393932	-20.363628	0.524382
0.026900	9	-19.552868	-19.594676	0.262106
0.027600	9	-19.292764	-19.305532	0.086666
0.028300	9	-19.129181	-19.123708	0.099714
0.029000	10	-18.823453	-18.828252	0.129863
0.029700	9	-18.492948	-18.496172	0.109331
0.030400	9	-18.409473	-18.390112	0.046251
0.031100	8	-18.579036	-18.585822	0.103228
0.031800	9	-18.856029	-18.820676	0.177971
0.032500	8	-19.454997	-19.398968	0.314003
0.033200	9	-20.266124	-20.345952	0.307037
0.033900	10	-19.892156	-19.998724	0.384798
0.034600	9	-19.027889	-19.047952	0.149013
0.035300	9	-18.880020	-18.828252	0.121365
0.036000	9	-18.038957	-17.946924	0.507241
0.036700	9	-17.092955	-16.950696	0.370403
0.037400	9	-16.583688	-16.569376	0.098083
0.038100	8	-16.753882	-16.726578	0.127568
0.038800	9	-17.385047	-17.339592	0.303022
0.039500	10	-17.839094	-17.873690	0.197977
0.040200	9	-18.014405	-18.016368	0.070128
0.040900	9	-18.210957	-18.209556	0.167398
0.041600	9	-18.972893	-19.016384	0.415507
0.042300	9	-19.989884	-20.186856	0.443699
0.043000	9	-20.784930	-20.755048	0.268558
0.043700	8	-21.242271	-21.224752	0.298679
0.044400	8	-22.126596	-22.130700	0.451239
0.045100	10	-22.874777	-22.832730	0.361634
0.045800	9	-23.279778	-23.271500	0.188096
0.046500	9	-23.145796	-23.199528	0.115278
0.047200	10	-22.914298	-22.924904	0.114138
0.047900	9	-23.006625	-22.977304	0.136246
0.048600	8	-23.313010	-23.340314	0.155329
0.049300	9	-23.573272	-23.558120	0.175326
0.050000	8	-23.318691	-23.294226	0.213142
0.050700	10	-22.706340	-22.546742	0.296627
0.051400	9	-22.236692	-22.220980	0.264248
0.052100	9	-22.324796	-22.338404	0.351657
0.052800	10	-22.226408	-22.226030	0.386297
0.053500	8	-21.460234	-21.513266	0.552480
0.054200	9	-20.147716	-20.046704	0.750019
0.054900	9	-18.755718	-18.710824	0.570487
0.055600	8	-17.891683	-17.831392	0.278197
0.056300	9	-16.990119	-17.028980	0.506653
0.057000	10	-15.217084	-15.328828	0.846166
0.057700	9	-12.923839	-13.348368	0.657663
0.058400	8	-11.243222	-11.374852	0.535137
0.059100	10	-9.703742	-9.682908	0.588430
0.059800	9	-8.287966	-8.132380	0.605603
0.060500	9	-6.897372	-6.732104	0.532945
0.061200	8	-5.704470	-5.626028	0.411646
0.061900	8	-4.773111	-4.739018	0.347804
0.062600	10	-3.887365	-3.905042	0.344809
0.063300	10	-3.173339	-3.235209	0.306417
0.064000	8	-2.579106	-2.607674	0.172595
0.064700	10	-2.117641	-2.100722	0.184410
0.065400	9	-1.741709	-1.709302	0.136466
0.066100	8	-1.443830	-1.393009	0.114026
0.066800	9	-1.201999	-1.158788	0.101956
0.067500	8	-0.997012	-0.977598	0.092616
0.068200	10	-0.798050	-0.804616	0.079901
0.068900	9	-0.659622	-0.658780	0.065284
0.069600	9	-0.516382	-0.523677	0.043069
0.070300	9	-0.419720	-0.423928	0.040163
0.071000	10	-0.335796	-0.338068	0.047970
0.071700	8	-0.257890	-0.250946	0.040212
0.072400	9	-0.200300	-0.196652	0.031995
0.073100	8	-0.145515	-0.134782	0.038366
0.073800	10	-0.105615	-0.123419	0.037957
0.074500	8	-0.081751	-0.082383	0.024418
0.075200	10	-0.032508	-0.030614	0.028683
0.075900	8	-0.005043	-0.004099	0.034672
0.076600	10	0.009415	0.000321	0.027107
0.077300	9	0.030209	0.019264	0.031865
0.078000	9	0.052801	0.065991	0.037610
0.078700	8	0.060939	0.067885	0.027108
0.079400	8	0.068201	0.069148	0.021578
0.080100	10	0.094659	0.093143	0.026545
0.080800	10	0.112213	0.110824	0.029865
0.081500	8	0.101668	0.095037	0.032809
0.082200	9	0.114682	0.110192	0.024540
0.082900	10	0.125347	0.124715	0.035805
0.083600	8	0.128504	0.119664	0.035412
0.084300	9	0.139659	0.143027	0.029599
0.085000	8	0.146342	0.146816	0.023710
0.085700	10	0.150731	0.149342	0.034684
0.086400	10	0.151362	0.157550	0.036489
0.087100	8	0.149342	0.150605	0.020799
0.087800	9	0.167724	0.153130	0.042557
0.088500	10	0.167275	0.171442	0.032970
0.089200	8	0.160866	0.163233	0.018522
0.089900	9	0.173477	0.156919	0.030828
0.090600	8	0.174442	0.171442	0.041840
0.091300	9	0.158743	0.164496	0.029245
0.092000	9	0.168425	0.163233	0.046250
0.092700	10	0.172074	0.172074	0.028166
0.093400	9	0.178528	0.182177	0.019267
0.094100	9	0.177266	0.172074	0.039109
0.094800	9	0.172916	0.170811	0.018826
0.095500	9	0.165619	0.170811	0.024463
0.096200	8	0.176809	0.177125	0.024059
0.096900	9	0.183019	0.182177	0.035521
0.097600	9	0.188491	0.180914	0.027508
0.098300	10	0.187102	0.182177	0.034091
0.099000	8	0.188491	0.192280	0.029067
0.099700	9	0.176845	0.169548	0.022691
0.100400	10	0.177757	0.174599	0.021575
0.101100	8	0.190859	0.191017	0.029159
0.101800	9	0.188772	0.194806	0.023391
0.102500	8	0.179651	0.183440	0.025297
0.103200	10	0.182177	0.184703	0.029445
0.103900	9	0.181615	0.179651	0.032121
0.104600	9	0.192561	0.189754	0.027840
0.105300	9	0.183019	0.173337	0.026830
0.106000	10	0.191648	0.191017	0.025592
0.106700	8	0.192911	0.188491	0.033095
0.107400	9	0.182317	0.170811	0.034485
0.108100	8	0.177757	0.171442	0.021764
0.108800	9	0.183861	0.184703	0.017193
0.109500	9	0.191298	0.191017	0.022361
0.110200	10	0.185460	0.182177	0.023267
0.110900	9	0.192841	0.193543	0.038449
0.111600	8	0.183598	0.176494	0.028425
0.112300	10	0.176241	0.171442	0.024279
0.113000	9	0.186948	0.196069	0.028049
0.113700	8	0.200804	0.202383	0.036041
0.114400	9	0.185825	0.180914	0.022984
0.115100	9	0.182457	0.177125	0.026288
0.115800	9	0.184282	0.184703	0.037274
0.116500	9	0.199998	0.188491	0.041295
0.117200	9	0.188070	0.183440	0.023649
0.117900	10	0.199099	0.200489	0.033685
0.118600	8	0.198594	0.191017	0.032024
0.119300	9	0.194806	0.193543	0.027809
0.120000	9	0.185825	0.183440	0.033721
0.120700	8	0.204593	0.180914	0.036737
0.121400	10	0.196574	0.196069	0.022691
0.122100	9	0.188351	0.174599	0.034619
0.122800	9	0.189894	0.187228	0.027310
0.123500	9	0.184001	0.185965	0.046157
0.124200	9	0.199015	0.178388	0.039048
0.124900	9	0.175441	0.172074	0.030952
0.125600	9	0.193964	0.183440	0.038407
0.126300	8	0.201909	0.199857	0.029469
0.127000	10	0.187228	0.184703	0.019678
0.127700	9	0.181475	0.167022	0.036296
0.128400	9	0.205751	0.202383	0.033397
0.129100	8	0.186755	0.189754	0.017691
0.129800	10	0.183440	0.167022	0.035613
0.130500	9	0.206031	0.207435	0.029046
0.131200	8	0.198910	0.189123	0.048303
0.131900	9	0.180633	0.182177	0.029795
0.132600	9	0.195227	0.187228	0.028183
0.133300	9	0.198875	0.187228	0.034564
0.134000	10	0.201752	0.204909	0.038336
0.134700	8	0.184703	0.183440	0.031452
0.135400	9	0.195086	0.215012	0.040691
0.136100	9	0.206452	0.217538	0.034394
0.136800	9	0.187088	0.174599	0.033721
0.137500	9	0.189894	0.179651	0.036395
0.138200	8	0.202067	0.203014	0.027457
0.138900	10	0.198468	0.197963	0.025773
0.139600	9	0.192420	0.170811	0.041620
0.140300	9	0.195648	0.187228	0.033887
0.141000	9	0.198454	0.180914	0.036449
0.141700	9	0.211504	0.199857	0.041834
0.142400	9	0.204909	0.197331	0.028501
0.143100	9	0.191157	0.193543	0.025823
0.143800	8	0.194016	0.179020	0.049567
0.144500	10	0.204656	0.186597	0.036597
0.145200	8	0.198594	0.191017	0.035670
0.145900	10	0.185334	0.183440	0.041211
0.146600	9	0.206593	0.193543	0.043045
0.147300	8	0.202541	0.198594	0.042838
0.148000	10	0.195690	0.190386	0.032173
0.148700	9	0.205049	0.194806	0.025850
0.149400	8	0.204751	0.202383	0.032194
0.150100	10	0.204404	0.192280	0.035040
0.150800	8	0.205698	0.191017	0.039403
0.151500	10	0.200236	0.197331	0.030367
0.152200	8	0.201120	0.203646	0.040001
0.152900	9	0.207154	0.209960	0.038760
0.153600	9	0.204768	0.189754	0.037565
0.154300	9	0.205330	0.199857	0.025293
0.155000	9	0.204768	0.188491	0.029446
0.155700	8	0.214065	0.225115	0.034196
0.156400	10	0.199226	0.189754	0.042809
0.157100	9	0.198875	0.196069	0.032383
0.157800	9	0.197051	0.184703	0.037158
0.158500	9	0.203927	0.189754	0.035305
0.159200	8	0.208540	0.194174	0.033936
0.159900	10	0.206424	0.216906	0.024199
0.160600	9	0.204067	0.198594	0.038536
0.161300	8	0.202383	0.194806	0.034770
0.162000	10	0.219053	0.205540	0.053439
0.162700	8	0.197174	0.191017	0.032398
0.163400	10	0.206172	0.191648	0.042475
0.164100	9	0.197051	0.185965	0.037363
0.164800	8	0.204751	0.213749	0.028558
0.165500	9	0.207154	0.192280	0.036727
0.166200	10	0.211350	0.212486	0.041424
0.166900	8	0.208066	0.197963	0.042099
0.167600	9	0.202102	0.199857	0.036606
0.168300	9	0.210662	0.204909	0.049717
0.169000	10	0.210971	0.206803	0.043681
0.169700	8	0.206487	0.196069	0.038236
0.170400	9	0.204628	0.203646	0.032969
0.171100	9	0.215573	0.218801	0.039418
0.171800	10	0.216654	0.191017	0.057514
0.172500	8	0.204119	0.203014	0.051986
0.173200	9	0.207435	0.215012	0.034298
0.173900	9	0.212205	0.202383	0.030622
0.174600	9	0.209820	0.198594	0.041385
0.175300	9	0.210802	0.218801	0.042524
0.176000	9	0.198875	0.187228	0.039979
0.176700	8	0.212170	0.223221	0.041559
0.177400	11	0.209386	0.204909	0.042090
0.178100	8	0.213749	0.221326	0.040368
0.178800	8	0.220221	0.230798	0.030345
0.179500	10	0.208445	0.205540	0.039899
0.180200	8	0.209645	0.206172	0.041889
0.180900	10	0.207308	0.210592	0.035565
0.181600	9	0.207856	0.204909	0.040635
0.182300	8	0.215801	0.223852	0.040050
0.183000	9	0.221046	0.192280	0.048696
0.183700	10	0.211855	0.204277	0.033107
0.184400	8	0.222747	0.233955	0.039075
0.185100	9	0.200839	0.207435	0.045603
0.185800	9	0.211644	0.221326	0.033545
0.186500	10	0.215264	0.205540	0.045062
0.187200	8	0.215801	0.211223	0.051728
0.187900	9	0.212205	0.212486	0.042100
0.188600	8	0.216117	0.216275	0.042219
0.189300	11	0.208583	0.213749	0.032082
0.190000	8	0.221642	0.215643	0.042301
0.190700	9	0.213328	0.211223	0.043050
0.191400	9	0.204628	0.207435	0.032503
0.192100	9	0.207154	0.177125	0.061636
0.192800	9	0.221046	0.211223	0.047685
0.193500	9	0.204628	0.202383	0.033518
0.194200	8	0.217853	0.223852	0.035657
0.194900	11	0.220867	0.215012	0.050061
0.195600	8	0.215643	0.216275	0.039469
0.196300	9	0.210241	0.201120	0.046705
0.197000	8	0.214223	0.214380	0.052823
0.197700	9	0.215994	0.203646	0.049555
0.198400	10	0.223221	0.206803	0.042559
0.199100	9	0.215293	0.204909	0.039971
0.199800	8	0.221484	0.204909	0.048191
0.200500	9	0.211364	0.201120	0.043737
0.201200	10	0.216022	0.226378	0.041938
0.201900	8	0.215801	0.222589	0.041237
0.202600	9	0.217117	0.209960	0.054472
0.203300	9	0.222168	0.240270	0.037919
0.204000	9	0.212486	0.212486	0.034344
0.204700	9	0.233955	0.217538	0.050040
0.205400	9	0.233113	0.249110	0.049759
0.206100	8	0.215959	0.223221	0.045660
0.206800	11	0.222474	0.212486	0.044720
0.207500	8	0.221484	0.226378	0.040157
0.208200	9	0.207294	0.199857	0.045835
0.208900	9	0.223010	0.246584	0.053610
0.209600	9	0.212767	0.189754	0.048474
0.210300	9	0.232833	0.242795	0.036308
0.211000	9	0.216275	0.213749	0.041631
0.211700	8	0.216275	0.220063	0.045019
0.212400	10	0.235092	0.230798	0.043014
0.213100	9	0.223010	0.236481	0.044055
0.213800	9	0.208697	0.220063	0.051671
0.214500	8	0.223536	0.229535	0.048674
0.215200	10	0.226252	0.235218	0.032652
0.215900	8	0.230798	0.245321	0.044210
0.216600	10	0.228146	0.246584	0.049341
0.217300	8	0.219116	0.220063	0.036508
0.218000	9	0.222168	0.225115	0.052827
0.218700	10	0.232692	0.236481	0.047593
0.219400	9	0.228623	0.245321	0.035380
0.220100	8	0.223536	0.230798	0.038299
0.220800	9	0.225536	0.236481	0.046037
0.221500	9	0.213328	0.199857	0.044701
0.222200	9	0.241813	0.259213	0.042966
0.222900	9	0.230167	0.239007	0.033093
0.223600	9	0.213047	0.225115	0.055270
0.224300	9	0.228763	0.240270	0.036701
0.225000	9	0.234657	0.255424	0.039839
0.225700	9	0.223992	0.235218	0.054006
0.226400	8	0.226378	0.216906	0.049563
0.227100	10	0.224862	0.228272	0.042952
0.227800	9	0.234657	0.250373	0.046971
0.228500	9	0.230167	0.247847	0.039678
0.229200	8	0.217696	0.223852	0.047779
0.229900	10	0.225620	0.237744	0.055401
0.230600	9	0.236060	0.242795	0.047118
0.231300	9	0.227360	0.242795	0.039051
0.232000	8	0.224799	0.235218	0.044277
0.232700	10	0.232945	0.237744	0.049665
0.233400	8	0.219906	0.216275	0.045967
0.234100	10	0.233071	0.249110	0.043135
0.234800	8	0.234902	0.237744	0.043169
0.235500	9	0.215854	0.199857	0.039887
0.236200	9	0.235358	0.232692	0.049252
0.236900	10	0.236102	0.252267	0.051305
0.237600	8	0.235692	0.247216	0.042523
0.238300	9	0.227080	0.232692	0.039229
0.239000	9	0.230447	0.225115	0.050409
0.239700	10	0.241027	0.251004	0.035863
0.240400	8	0.240112	0.244690	0.038515
0.241100	9	0.212346	0.236481	0.051932
0.241800	9	0.226939	0.252899	0.053169
0.242500	10	0.231935	0.240901	0.055453
0.243200	8	0.231429	0.232061	0.049281
0.243900	8	0.232377	0.225746	0.053370
0.244600	10	0.239765	0.245321	0.032030
0.245300	8	0.238060	0.248478	0.046207
0.246000	10	0.242290	0.257319	0.046966
0.246700	9	0.216275	0.232692	0.055765
0.247400	9	0.237463	0.255424	0.038530
0.248100	9	0.251074	0.265527	0.049905
0.248800	9	0.232131	0.236481	0.050323
0.249500	8	0.239007	0.248478	0.038616
0.250200	10	0.233576	0.244690	0.037612
0.250900	8	0.245321	0.254793	0.045512
0.251600	10	0.247216	0.249741	0.037689
0.252300	9	0.234937	0.257950	0.058982
0.253000	8	0.244216	0.242164	0.044674
0.253700	9	0.247426	0.260476	0.042398
0.254400	10	0.242164	0.257319	0.055349
0.255100	8	0.239323	0.235218	0.045817
0.255800	10	0.243553	0.251004	0.040602
0.256500	8	0.237270	0.244058	0.045385
0.257200	10	0.243174	0.251636	0.041418
0.257900	8	0.233955	0.235850	0.050155
0.258600	9	0.237463	0.257950	0.046879
0.259300	9	0.251776	0.269316	0.039724
0.260000	10	0.235597	0.230798	0.049411
0.260700	8	0.248952	0.266790	0.043056
0.261400	8	0.246900	0.258582	0.043164
0.262100	10	0.238628	0.250373	0.052607
0.262800	8	0.242164	0.245321	0.045861
0.263500	10	0.258076	0.271211	0.043676
0.264200	9	0.236902	0.256687	0.042648
0.264900	9	0.245883	0.242795	0.043549
0.265600	9	0.238165	0.237744	0.045487
0.266300	9	0.254302	0.281945	0.045392
0.267000	8	0.247216	0.268685	0.055445
0.267700	10	0.245069	0.245321	0.034929
0.268400	8	0.238218	0.241533	0.040199
0.269100	10	0.261486	0.270579	0.038200
0.269800	9	0.240129	0.247847	0.037304
0.270500	8	0.247689	0.255424	0.038261
0.271200	9	0.253460	0.257950	0.045760
0.271900	10	0.245700	0.270579	0.047375
0.272600	8	0.243111	0.232692	0.038677
0.273300	9	0.238025	0.235218	0.037942
0.274000	9	0.246724	0.260476	0.048025
0.274700	9	0.263002	0.276893	0.032835
0.275400	10	0.258960	0.259844	0.066337
0.276100	8	0.245321	0.263002	0.048588
0.276800	9	0.249391	0.257950	0.036275
0.277500	9	0.238446	0.235218	0.045238
0.278200	9	0.257670	0.274368	0.036074
0.278900	8	0.253372	0.251636	0.036487
0.279600	10	0.251636	0.251636	0.042778
0.280300	8	0.253846	0.256687	0.041429
0.281000	10	0.261865	0.268053	0.035717
0.281700	9	0.246304	0.249110	0.036509
0.282400	9	0.256547	0.244058	0.049432
0.283100	9	0.249110	0.251636	0.042810
0.283800	9	0.259494	0.266790	0.038608
0.284500	8	0.243111	0.247847	0.041309
0.285200	10	0.256308	0.262370	0.034201
0.285900	8	0.266948	0.276894	0.048672
0.286600	10	0.255803	0.263002	0.037655
0.287300	9	0.251215	0.268053	0.046291
0.288000	8	0.254477	0.261739	0.041338
0.288700	10	0.250373	0.254161	0.041599
0.289400	8	0.255898	0.261107	0.037266
0.290100	9	0.272965	0.276893	0.044759
0.290800	9	0.259213	0.265527	0.034912
0.291500	9	0.260757	0.269316	0.043503
0.292200	9	0.260336	0.265527	0.041278
0.292900	10	0.265780	0.277525	0.048580
0.293600	8	0.257003	0.268685	0.027069
0.294300	9	0.255705	0.260476	0.027731
0.295000	9	0.256828	0.265527	0.037992
0.295700	9	0.283769	0.284471	0.043239
0.296400	8	0.264896	0.271842	0.038534
0.297100	10	0.252267	0.249110	0.033304
0.297800	8	0.254004	0.263002	0.026890
0.298500	11	0.255884	0.260476	0.039741
0.299200	8	0.251951	0.256056	0.034648
0.299900	9	0.263142	0.260476	0.037809
