x 20.000000
y 3.000000
r 127.000000
dw .254
w 30.909696
wstd 0.006991
# theta(rad)	count	mean(uA)	median(uA)	std dev(uA)
-0.300000	14	0.287899	0.278156	0.044390
-0.299300	13	0.290591	0.275631	0.040150
-0.298600	9	0.295135	0.285734	0.035611
-0.297900	9	0.305940	0.309729	0.041443
-0.297200	9	0.286856	0.263002	0.046791
-0.296500	9	0.282226	0.269316	0.047782
-0.295800	9	0.295837	0.284471	0.059256
-0.295100	9	0.295135	0.307203	0.037915
-0.294400	18	0.295346	0.274999	0.047174
-0.293700	9	0.288821	0.278156	0.038720
-0.293000	9	0.308325	0.331198	0.042733
-0.292300	9	0.294574	0.293311	0.047589
-0.291600	9	0.294153	0.278156	0.034698
-0.290900	9	0.287979	0.278156	0.035545
-0.290200	9	0.306080	0.293311	0.047955
-0.289500	10	0.303667	0.305309	0.043138
-0.288800	17	0.276002	0.278156	0.039702
-0.288100	9	0.293732	0.288260	0.037421
-0.287400	9	0.293030	0.284471	0.044701
-0.286700	9	0.296117	0.284471	0.052138
-0.286000	9	0.291627	0.295837	0.038550
-0.285300	9	0.288400	0.275631	0.045125
-0.284600	9	0.300187	0.309729	0.047946
-0.283900	18	0.281735	0.281314	0.045314
-0.283200	9	0.288260	0.281945	0.034550
-0.282500	9	0.302151	0.298363	0.031259
-0.281800	9	0.283769	0.278156	0.041143
-0.281100	9	0.290926	0.292048	0.053143
-0.280400	9	0.293732	0.298363	0.046797
-0.279700	9	0.277876	0.263002	0.044613
-0.279000	9	0.278016	0.264265	0.035831
-0.278300	18	0.290014	0.289522	0.036379
-0.277600	9	0.288680	0.283208	0.041387
-0.276900	9	0.290364	0.289522	0.035351
-0.276200	9	0.277455	0.270579	0.048741
-0.275500	9	0.291487	0.280682	0.041354
-0.274800	9	0.288119	0.274368	0.035608
-0.274100	9	0.281524	0.295837	0.042469
-0.273400	16	0.285971	0.272473	0.039490
-0.272700	11	0.284126	0.278156	0.032404
-0.272000	9	0.283769	0.279419	0.038273
-0.271300	9	0.286295	0.283208	0.050093
-0.270600	9	0.295135	0.298363	0.030427
-0.269900	9	0.281945	0.261739	0.036041
-0.269200	9	0.281524	0.278156	0.044614
-0.268500	9	0.289663	0.284471	0.042048
-0.267800	18	0.284401	0.286997	0.040847
-0.267100	9	0.299626	0.304677	0.037525
-0.266400	9	0.281945	0.281945	0.033603
-0.265700	9	0.296118	0.264265	0.057866
-0.265000	9	0.290645	0.278156	0.058307
-0.264300	9	0.278577	0.290785	0.044915
-0.263600	9	0.284331	0.288260	0.040067
-0.262900	15	0.285565	0.292048	0.041549
-0.262200	12	0.280787	0.282577	0.043297
-0.261500	9	0.296117	0.286997	0.037562
-0.260800	9	0.277876	0.266790	0.046229
-0.260100	9	0.276332	0.252899	0.047909
-0.259400	9	0.290224	0.292048	0.036796
-0.258700	9	0.282226	0.292048	0.032053
-0.258000	9	0.279981	0.271842	0.041865
-0.257300	18	0.286085	0.286365	0.041067
-0.256600	9	0.281384	0.284471	0.040693
-0.255900	9	0.282647	0.302151	0.037459
-0.255200	9	0.282226	0.273105	0.048576
-0.254500	9	0.295556	0.293311	0.032421
-0.253800	9	0.284751	0.294574	0.035088
-0.253100	9	0.277595	0.276893	0.040540
-0.252400	10	0.282955	0.280682	0.046760
-0.251700	17	0.280534	0.276893	0.041151
-0.251000	9	0.275210	0.276893	0.040452
-0.250300	9	0.289663	0.293311	0.050109
-0.249600	9	0.285874	0.284471	0.036283
-0.248900	9	0.280261	0.290785	0.044183
-0.248200	9	0.283208	0.283208	0.038591
-0.247500	9	0.278858	0.278156	0.032986
-0.246800	18	0.290855	0.297731	0.033390
-0.246100	9	0.271702	0.273105	0.030730
-0.245400	9	0.280121	0.286997	0.037700
-0.244700	9	0.297240	0.290785	0.054545
-0.244000	9	0.282506	0.290785	0.048365
-0.243300	9	0.273947	0.278156	0.036795
-0.242600	9	0.280963	0.280682	0.029333
-0.241900	9	0.290505	0.293311	0.036207
-0.241200	18	0.289172	0.285734	0.043925
-0.240500	9	0.284050	0.278156	0.038097
-0.239800	9	0.280822	0.278156	0.054190
-0.239100	9	0.291627	0.278156	0.044797
-0.238400	9	0.281945	0.286997	0.038208
-0.237700	9	0.275631	0.266790	0.024883
-0.237000	9	0.290505	0.289522	0.034157
-0.236300	18	0.285944	0.280682	0.045972
-0.235600	9	0.270158	0.268053	0.033566
-0.234900	9	0.287979	0.310992	0.041210
-0.234200	9	0.286716	0.275631	0.030026
-0.233500	9	0.282647	0.268053	0.039098
-0.232800	9	0.283348	0.278156	0.040454
-0.232100	9	0.277876	0.283208	0.047338
-0.231400	9	0.283910	0.284471	0.040970
-0.230700	18	0.289101	0.281314	0.033748
-0.230000	9	0.272263	0.252899	0.035099
-0.229300	9	0.293311	0.284471	0.043062
-0.228600	9	0.290364	0.302151	0.035306
-0.227900	9	0.278437	0.294574	0.036794
-0.227200	9	0.287698	0.281945	0.040701
-0.226500	9	0.194385	0.257950	0.126857
-0.225800	18	0.149201	0.161339	0.083137
-0.225100	9	0.273666	0.288260	0.036675
-0.224400	9	0.272965	0.276893	0.041671
-0.223700	9	0.272684	0.260476	0.042369
-0.223000	9	0.288400	0.294574	0.039805
-0.222300	9	0.295837	0.302151	0.032384
-0.221600	9	0.280542	0.289522	0.037432
-0.220900	9	0.284190	0.283208	0.036050
-0.220200	18	0.283559	0.284471	0.039310
-0.219500	9	0.284892	0.305940	0.046695
-0.218800	9	0.277034	0.259213	0.038427
-0.218100	9	0.284471	0.273105	0.030566
-0.217400	9	0.284050	0.275631	0.019781
-0.216700	9	0.289101	0.285734	0.035054
-0.216000	9	0.282787	0.284471	0.046087
-0.215300	17	0.280756	0.283208	0.035933
-0.214600	10	0.279293	0.260476	0.032229
-0.213900	9	0.278437	0.269316	0.030014
-0.213200	9	0.284751	0.280682	0.038244
-0.212500	9	0.285874	0.289522	0.037588
-0.211800	9	0.283208	0.288260	0.032624
-0.211100	9	0.277876	0.274368	0.032715
-0.210400	9	0.276473	0.279419	0.030478
-0.209700	18	0.282857	0.272473	0.029503
-0.209000	9	0.277034	0.274368	0.032616
-0.208300	9	0.286155	0.297100	0.040675
-0.207600	9	0.280121	0.283208	0.050411
-0.206900	9	0.275771	0.270579	0.034741
-0.206200	9	0.274368	0.266790	0.033897
-0.205500	9	0.282787	0.271842	0.027726
-0.204800	11	0.280453	0.265527	0.032390
-0.204100	16	0.275867	0.271211	0.046484
-0.203400	9	0.279139	0.284471	0.042846
-0.202700	9	0.278998	0.266790	0.032889
-0.202000	9	0.278297	0.269316	0.028229
-0.201300	9	0.276052	0.275631	0.033077
-0.200600	9	0.278998	0.274368	0.035972
-0.199900	9	0.277034	0.265527	0.034119
-0.199200	18	0.278367	0.271211	0.041593
-0.198500	9	0.275490	0.265527	0.039199
-0.197800	9	0.281945	0.276893	0.032252
-0.197100	9	0.277735	0.269316	0.029617
-0.196400	9	0.268053	0.254161	0.042860
-0.195700	9	0.278156	0.274368	0.041822
-0.195000	9	0.274227	0.256687	0.040274
-0.194300	9	0.289522	0.283208	0.035730
-0.193600	18	0.274929	0.266159	0.026738
-0.192900	9	0.283769	0.279419	0.032841
-0.192200	9	0.291066	0.292048	0.038805
-0.191500	9	0.284190	0.285734	0.038700
-0.190800	9	0.274087	0.280682	0.044278
-0.190100	9	0.271702	0.264265	0.031250
-0.189400	9	0.278577	0.274368	0.032390
-0.188700	18	0.279910	0.274999	0.037826
-0.188000	9	0.276332	0.265527	0.037074
-0.187300	9	0.281524	0.275631	0.042273
-0.186600	9	0.265107	0.263002	0.040091
-0.185900	9	0.275911	0.257950	0.036236
-0.185200	9	0.273947	0.268053	0.031893
-0.184500	9	0.275069	0.274368	0.030941
-0.183800	9	0.280261	0.266790	0.053860
-0.183100	18	0.275420	0.269316	0.041723
-0.182400	9	0.273526	0.273105	0.035987
-0.181700	9	0.266089	0.268053	0.034999
-0.181000	9	0.280121	0.292048	0.043837
-0.180300	9	0.268755	0.264265	0.041810
-0.179600	9	0.270579	0.257950	0.042465
-0.178900	9	0.280822	0.268053	0.040646
-0.178200	17	0.273253	0.265527	0.041645
-0.177500	10	0.266917	0.268053	0.033291
-0.176800	9	0.285874	0.273105	0.035011
-0.176100	9	0.278577	0.270579	0.045844
-0.175400	9	0.267492	0.257950	0.050210
-0.174700	9	0.271421	0.257950	0.036670
-0.174000	9	0.276192	0.273105	0.035402
-0.173300	9	0.273666	0.275631	0.037798
-0.172600	18	0.274368	0.272473	0.033981
-0.171900	9	0.266229	0.249110	0.040286
-0.171200	9	0.280261	0.270579	0.043934
-0.170500	9	0.270018	0.265527	0.037864
-0.169800	9	0.266790	0.261739	0.027955
-0.169100	9	0.269316	0.270579	0.036819
-0.168400	9	0.273105	0.274368	0.044331
-0.167700	13	0.272036	0.265527	0.034776
-0.167000	14	0.274007	0.269316	0.052976
-0.166300	9	0.277034	0.266790	0.040851
-0.165600	9	0.279419	0.266790	0.038171
-0.164900	9	0.269176	0.266790	0.041088
-0.164200	9	0.275350	0.273105	0.051156
-0.163500	9	0.280542	0.290785	0.042429
-0.162800	9	0.280963	0.279419	0.045264
-0.162100	18	0.269246	0.273105	0.044146
-0.161400	9	0.277314	0.283208	0.030478
-0.160700	9	0.278577	0.280682	0.047649
-0.160000	9	0.274227	0.274368	0.039791
-0.159300	9	0.270298	0.252899	0.044807
-0.158600	9	0.272684	0.263002	0.039220
-0.157900	9	0.275631	0.284471	0.038166
-0.157200	12	0.270895	0.268685	0.038898
-0.156500	15	0.273778	0.255424	0.042017
-0.155800	9	0.278858	0.302151	0.045312
-0.155100	9	0.269176	0.260476	0.041273
-0.154400	9	0.270439	0.270579	0.037898
-0.153700	9	0.266510	0.260476	0.037820
-0.153000	9	0.276473	0.290785	0.035601
-0.152300	9	0.266369	0.269316	0.030693
-0.151600	18	0.268615	0.285102	0.041782
-0.150900	9	0.277455	0.294574	0.040439
-0.150200	9	0.273105	0.270579	0.032673
-0.149500	9	0.270158	0.274368	0.036452
-0.148800	9	0.272824	0.274368	0.042506
-0.148100	9	0.278998	0.274368	0.043934
-0.147400	9	0.273666	0.280682	0.046455
-0.146700	12	0.275315	0.283208	0.042148
-0.146000	15	0.264601	0.256687	0.045521
-0.145300	9	0.272263	0.281945	0.041703
-0.144600	9	0.279279	0.305940	0.038945
-0.143900	9	0.262440	0.280682	0.050607
-0.143200	9	0.281103	0.274368	0.056453
-0.142500	9	0.287558	0.312254	0.055552
-0.141800	9	0.272123	0.264265	0.038170
-0.141100	17	0.277934	0.288260	0.039918
-0.140400	10	0.270705	0.278156	0.038968
-0.139700	9	0.281524	0.295837	0.047860
-0.139000	9	0.277595	0.278156	0.048661
-0.138300	9	0.280121	0.276893	0.039093
-0.137600	9	0.282927	0.283208	0.040956
-0.136900	9	0.268755	0.275631	0.037241
-0.136200	11	0.272760	0.300888	0.049492
-0.135500	16	0.276972	0.290785	0.037286
-0.134800	9	0.285734	0.295837	0.040219
-0.134100	9	0.273947	0.295837	0.042632
-0.133400	9	0.272403	0.273105	0.033667
-0.132700	9	0.274087	0.293311	0.035048
-0.132000	9	0.274648	0.278156	0.051481
-0.131300	9	0.272263	0.280682	0.044463
-0.130600	15	0.281103	0.304677	0.045205
-0.129900	12	0.279840	0.269316	0.038837
-0.129200	9	0.268053	0.269316	0.039624
-0.128500	9	0.262581	0.278156	0.040038
-0.127800	9	0.286295	0.305940	0.051688
-0.127100	9	0.283910	0.300888	0.040308
-0.126400	9	0.273666	0.284471	0.040983
-0.125700	9	0.271702	0.276893	0.047161
-0.125000	18	0.285313	0.291417	0.044537
-0.124300	9	0.270579	0.268053	0.035114
-0.123600	9	0.274648	0.304677	0.050494
-0.122900	9	0.286576	0.303414	0.048119
-0.122200	9	0.280402	0.294574	0.049716
-0.121500	9	0.288961	0.283208	0.044595
-0.120800	9	0.264124	0.263002	0.035358
-0.120100	13	0.274076	0.259213	0.052817
-0.119400	14	0.284741	0.283208	0.048383
-0.118700	9	0.272544	0.286997	0.047370
-0.118000	9	0.278998	0.271842	0.052625
-0.117300	9	0.284471	0.295837	0.034754
-0.116600	9	0.274227	0.270579	0.038141
-0.115900	9	0.277314	0.280682	0.046080
-0.115200	9	0.266931	0.268053	0.046521
-0.114500	17	0.282539	0.304677	0.047283
-0.113800	10	0.279924	0.276262	0.030656
-0.113100	9	0.288260	0.298363	0.047574
-0.112400	9	0.272824	0.263002	0.041378
-0.111700	9	0.270719	0.249110	0.046556
-0.111000	9	0.286435	0.304677	0.044611
-0.110300	9	0.280542	0.289522	0.046863
-0.109600	12	0.276262	0.261739	0.053332
-0.108900	15	0.288849	0.283208	0.041699
-0.108200	9	0.271561	0.257950	0.044294
-0.107500	9	0.276332	0.271842	0.047478
-0.106800	9	0.272544	0.278156	0.044666
-0.106100	9	0.286716	0.271842	0.058101
-0.105400	9	0.285032	0.284471	0.043443
-0.104700	9	0.282085	0.278156	0.052627
-0.104000	17	0.268053	0.256687	0.054610
-0.103300	10	0.278283	0.290154	0.047995
-0.102600	9	0.276473	0.281945	0.048053
-0.101900	9	0.284751	0.266790	0.043364
-0.101200	9	0.272684	0.240270	0.045674
-0.100500	9	0.271000	0.284471	0.041995
-0.099800	9	0.274648	0.293311	0.041172
-0.099100	12	0.270895	0.263633	0.046753
-0.098400	15	0.277230	0.259213	0.046384
-0.097700	9	0.283068	0.292048	0.046208
-0.097000	9	0.272824	0.275631	0.036809
-0.096300	9	0.281384	0.257950	0.048923
-0.095600	9	0.279139	0.292048	0.043036
-0.094900	9	0.271421	0.268053	0.035789
-0.094200	9	0.279139	0.265527	0.050145
-0.093500	15	0.282619	0.283208	0.040612
-0.092800	12	0.269421	0.246584	0.046434
-0.092100	9	0.291487	0.305940	0.046413
-0.091400	9	0.271140	0.270579	0.048486
-0.090700	9	0.266931	0.260476	0.048271
-0.090000	9	0.278858	0.276893	0.044487
-0.089300	9	0.279700	0.284471	0.043597
-0.088600	12	0.278683	0.270579	0.044242
-0.087900	15	0.265022	0.247847	0.050498
-0.087200	9	0.275350	0.279419	0.038782
-0.086500	9	0.272263	0.260476	0.054214
-0.085800	9	0.276613	0.256687	0.051291
-0.085100	9	0.271982	0.266790	0.039809
-0.084400	9	0.271982	0.271842	0.047172
-0.083700	9	0.262581	0.259213	0.046797
-0.083000	13	0.274853	0.265527	0.052883
-0.082300	14	0.269587	0.258582	0.049188
-0.081600	9	0.277174	0.276893	0.046286
-0.080900	9	0.281664	0.288260	0.049744
-0.080200	9	0.275631	0.304677	0.048233
-0.079500	9	0.267211	0.252899	0.056847
-0.078800	9	0.270719	0.266790	0.047040
-0.078100	11	0.273449	0.247847	0.053761
-0.077400	15	0.278914	0.276893	0.047705
-0.076700	10	0.274873	0.254793	0.043938
-0.076000	9	0.261599	0.240270	0.056244
-0.075300	9	0.272123	0.279419	0.048485
-0.074600	9	0.277455	0.279419	0.046918
-0.073900	9	0.268755	0.252899	0.042868
-0.073200	9	0.268895	0.249110	0.045561
-0.072500	13	0.273688	0.280682	0.047884
-0.071800	14	0.274638	0.280682	0.049359
-0.071100	9	0.261599	0.288260	0.052353
-0.070400	9	0.265527	0.250373	0.050813
-0.069700	9	0.273806	0.297100	0.048270
-0.069000	9	0.269176	0.266790	0.044854
-0.068300	9	0.263423	0.268053	0.044135
-0.067600	11	0.272416	0.264265	0.044975
-0.066900	15	0.272852	0.298363	0.055178
-0.066200	10	0.262244	0.246584	0.059074
-0.065500	9	0.277314	0.281945	0.044777
-0.064800	9	0.274227	0.278156	0.044842
-0.064100	9	0.263984	0.250373	0.047996
-0.063400	9	0.267071	0.252899	0.046932
-0.062700	9	0.273385	0.294574	0.054750
-0.062000	12	0.283313	0.295205	0.047724
-0.061300	15	0.257277	0.269316	0.052606
-0.060600	9	0.274368	0.297100	0.043439
-0.059900	9	0.263984	0.275631	0.046320
-0.059200	9	0.257810	0.255424	0.042367
-0.058500	9	0.270579	0.268053	0.035230
-0.057800	9	0.264545	0.289522	0.047845
-0.057100	9	0.265668	0.269316	0.041530
-0.056400	15	0.273610	0.283208	0.042153
-0.055700	12	0.252688	0.252899	0.043929
-0.055000	9	0.262861	0.269316	0.043677
-0.054300	9	0.264826	0.281945	0.045030
-0.053600	9	0.265808	0.254161	0.054129
-0.052900	9	0.274227	0.273105	0.041183
-0.052200	9	0.275490	0.279419	0.033176
-0.051500	12	0.268369	0.288260	0.044006
-0.050800	14	0.257229	0.276262	0.051338
-0.050100	10	0.256308	0.244690	0.045765
-0.049400	9	0.267352	0.286997	0.053640
-0.048700	9	0.265668	0.278156	0.038094
-0.048000	9	0.254582	0.260476	0.035977
-0.047300	9	0.257249	0.268053	0.043801
-0.046600	9	0.260757	0.259213	0.041099
-0.045900	15	0.261823	0.266790	0.057949
-0.045200	12	0.263949	0.271210	0.035961
-0.044500	9	0.269877	0.275631	0.037653
-0.043800	9	0.258932	0.266790	0.044094
-0.043100	9	0.256828	0.242795	0.036946
-0.042400	9	0.257108	0.260476	0.049837
-0.041700	9	0.262721	0.275631	0.046910
-0.041000	12	0.266264	0.264265	0.035789
-0.040300	14	0.264896	0.269316	0.046848
-0.039600	10	0.257698	0.257950	0.034879
-0.038900	9	0.256547	0.263002	0.042505
-0.038200	9	0.261458	0.265527	0.051076
-0.037500	9	0.253179	0.237744	0.046557
-0.036800	9	0.253039	0.257950	0.034960
-0.036100	9	0.267352	0.275631	0.045542
-0.035400	13	0.252704	0.264265	0.050869
-0.034700	14	0.254432	0.267422	0.038729
-0.034000	9	0.248689	0.247847	0.049691
-0.033300	9	0.257950	0.274368	0.038213
-0.032600	9	0.247005	0.244058	0.033264
-0.031900	9	0.242795	0.250373	0.034729
-0.031200	9	0.250092	0.265527	0.050046
-0.030500	12	0.246163	0.241533	0.048752
-0.029800	14	0.251185	0.279419	0.050946
-0.029100	10	0.249489	0.256687	0.040270
-0.028400	9	0.240270	0.250373	0.032411
-0.027700	9	0.243357	0.263002	0.033783
-0.027000	9	0.239849	0.239007	0.043508
-0.026300	9	0.239708	0.249110	0.048603
-0.025600	9	0.225676	0.236481	0.047452
-0.024900	13	0.234732	0.232692	0.048442
-0.024200	14	0.240179	0.247216	0.035884
-0.023500	9	0.216415	0.226378	0.032150
-0.022800	9	0.225817	0.239007	0.041597
-0.022100	9	0.230868	0.244058	0.052274
-0.021400	9	0.209680	0.209960	0.047741
-0.020700	9	0.217959	0.223852	0.042377
-0.020000	11	0.214438	0.233955	0.038121
-0.019300	13	0.209960	0.217538	0.043373
-0.018600	12	0.197437	0.204277	0.035844
-0.017900	9	0.183720	0.180914	0.044054
-0.017200	9	0.175161	0.174599	0.041396
-0.016500	9	0.187790	0.175862	0.048988
-0.015800	9	0.170670	0.179651	0.030376
-0.015100	9	0.157901	0.160708	0.040050
-0.014400	12	0.131451	0.129767	0.038253
-0.013700	14	0.134638	0.139870	0.035159
-0.013000	10	0.112465	0.102615	0.035759
-0.012300	9	0.093494	0.096300	0.029538
-0.011600	9	0.088442	0.082408	0.036659
-0.010900	9	0.070341	0.059676	0.048126
-0.010200	9	0.047610	0.055888	0.039650
-0.009500	11	0.014558	0.007898	0.033351
-0.008800	13	-0.017548	-0.019882	0.049506
-0.008100	12	-0.045871	-0.045766	0.031719
-0.007400	9	-0.087223	-0.081751	0.043140
-0.006700	9	-0.129451	-0.127207	0.045055
-0.006000	9	-0.166910	-0.161298	0.040405
-0.005300	9	-0.196652	-0.190339	0.054125
-0.004600	9	-0.257820	-0.257259	0.040427
-0.003900	12	-0.330072	-0.330493	0.037379
-0.003200	14	-0.430602	-0.424560	0.048744
-0.002500	10	-0.533652	-0.543880	0.053275
-0.001800	9	-0.643769	-0.624689	0.043802
-0.001100	9	-0.745763	-0.740852	0.027409
-0.000400	9	-0.875114	-0.875956	0.035067
0.000300	9	-1.021160	-1.017372	0.040435
0.001000	11	-1.216870	-1.204243	0.069447
0.001700	11	-1.477319	-1.442883	0.117345
0.002400	14	-1.789389	-1.836829	0.142515
0.003100	9	-2.181391	-2.173955	0.080742
0.003800	9	-2.551767	-2.531284	0.089518
0.004500	9	-2.983171	-2.934068	0.120460
0.005200	9	-3.499031	-3.446702	0.135463
0.005900	9	-4.119551	-4.062872	0.169853
0.006600	12	-5.075725	-4.988392	0.451104
0.007300	14	-6.386952	-6.497884	0.630979
0.008000	10	-7.996520	-7.958136	0.571662
0.008700	9	-9.573058	-9.397552	0.375308
0.009400	9	-10.942327	-10.771308	0.333224
0.010100	9	-12.309212	-12.108452	0.355170
0.010800	9	-13.892148	-13.680444	0.432393
0.011500	11	-16.004975	-15.727192	0.716702
0.012200	11	-18.090751	-17.940612	0.633681
0.012900	14	-19.408076	-19.448210	0.450993
0.013600	9	-20.500694	-20.479792	0.291302
0.014300	9	-21.631604	-21.577032	0.364254
0.015000	9	-23.135835	-23.127556	0.395813
0.015700	9	-24.261413	-24.166716	0.359049
0.016400	9	-24.420228	-24.376316	0.407261
0.017100	12	-24.814453	-24.689452	0.554334
0.017800	14	-26.491698	-26.726100	0.963067
0.018500	10	-28.435720	-28.517160	0.620497
0.019200	9	-27.889276	-28.000108	0.645329
0.019900	9	-26.576825	-26.694532	0.612426
0.020600	9	-25.624510	-25.697044	0.493708
0.021300	9	-25.205031	-25.174308	0.374640
0.022000	9	-25.137831	-25.080872	0.342433
0.022700	13	-24.675660	-24.666724	0.464999
0.023400	13	-23.833183	-23.827064	0.617929
0.024100	10	-23.405467	-23.430594	0.311256
0.024800	9	-23.674004	-23.729840	0.316743
0.025500	9	-23.481240	-23.453320	0.442038
0.026200	9	-22.799270	-22.923008	0.580642
0.026900	9	-21.533118	-21.666676	0.474311
0.027600	12	-20.756521	-20.679288	0.233447
0.028300	12	-20.537451	-20.556812	0.223887
0.029000	12	-20.325538	-20.356052	0.219282
0.029700	9	-19.892521	-19.960844	0.258056
0.030400	9	-19.578121	-19.604780	0.233883
0.031100	9	-19.554972	-19.575736	0.183284
0.031800	9	-19.692882	-19.732304	0.174373
0.032500	9	-19.956494	-19.926752	0.178756
0.033200	12	-20.772198	-20.607318	0.413514
0.033900	14	-21.161980	-21.371216	0.485497
0.034600	10	-20.150619	-20.140770	0.488045
0.035300	9	-19.823355	-19.772708	0.234373
0.036000	9	-19.682641	-19.665384	0.454789
0.036700	9	-18.715876	-18.671684	0.454222
0.037400	9	-17.989574	-17.993640	0.271005
0.038100	12	-17.894839	-17.815608	0.202514
0.038800	12	-18.489335	-18.460820	0.330043
0.039500	12	-19.058157	-19.103506	0.162462
0.040200	9	-19.105050	-19.118660	0.140567
0.040900	9	-19.155697	-19.189368	0.099108
0.041600	9	-19.577420	-19.540384	0.173977
0.042300	9	-20.528052	-20.584592	0.305519
0.043000	9	-21.482051	-21.420460	0.202077
0.043700	12	-22.059781	-22.063780	0.256301
0.044400	14	-22.957643	-22.957100	0.543022
0.045100	10	-24.090578	-24.139568	0.256030
0.045800	9	-24.714142	-24.684400	0.144273
0.046500	9	-24.855980	-24.882636	0.246000
0.047200	9	-24.423734	-24.416720	0.252927
0.047900	9	-24.244719	-24.271516	0.156514
0.048600	11	-24.481229	-24.489952	0.143810
0.049300	11	-24.858646	-24.858648	0.133238
0.050000	13	-24.730050	-24.830868	0.370865
0.050700	10	-24.014062	-23.995626	0.468349
0.051400	9	-23.370688	-23.332108	0.320437
0.052100	9	-23.272061	-23.296752	0.195050
0.052800	9	-23.464685	-23.425544	0.227746
0.053500	9	-23.048994	-23.040436	0.437737
0.054200	12	-21.818511	-21.966556	0.795288
0.054900	14	-19.968059	-19.845944	0.864404
0.055600	10	-18.722062	-18.675470	0.374437
0.056300	9	-17.998412	-18.108540	0.445951
0.057000	9	-16.516346	-16.507508	0.685609
0.057700	9	-14.573415	-14.527680	0.690588
0.058400	9	-12.733460	-12.709468	0.609322
0.059100	11	-10.998241	-11.086972	0.596949
0.059800	11	-9.341420	-9.252348	0.722423
0.060500	13	-7.793505	-7.756112	0.777911
0.061200	10	-6.244598	-6.194220	0.493894
0.061900	9	-5.115779	-5.061624	0.330904
0.062600	9	-4.268824	-4.219440	0.267793
0.063300	9	-3.568056	-3.570441	0.235471
0.064000	9	-2.990326	-3.006039	0.201707
0.064700	12	-2.411017	-2.450475	0.229642
0.065400	12	-1.920269	-1.938472	0.224395
0.066100	12	-1.541685	-1.503490	0.156612
0.066800	9	-1.219676	-1.226971	0.097397
0.067500	9	-1.022563	-1.009796	0.087633
0.068200	9	-0.848177	-0.845652	0.076933
0.068900	9	-0.685717	-0.691609	0.047420
0.069600	11	-0.552374	-0.556506	0.060619
0.070300	11	-0.404989	-0.406251	0.081580
0.071000	13	-0.313301	-0.305240	0.070584
0.071700	10	-0.218622	-0.225693	0.055729
0.072400	9	-0.154143	-0.149934	0.048757
0.073100	9	-0.105601	-0.104479	0.030018
0.073800	9	-0.055516	-0.052711	0.034305
0.074500	9	-0.005988	0.015475	0.056612
0.075200	12	0.020740	0.023053	0.054991
0.075900	12	0.048627	0.045153	0.045220
0.076600	12	0.085355	0.091249	0.036516
0.077300	9	0.110192	0.119032	0.032878
0.078000	9	0.128293	0.136713	0.029939
0.078700	9	0.141764	0.167022	0.037633
0.079400	9	0.157761	0.169548	0.049595
0.080100	11	0.173681	0.177125	0.030643
0.080800	10	0.176746	0.191017	0.036707
0.081500	14	0.187499	0.201120	0.037183
0.082200	10	0.212486	0.227641	0.037887
0.082900	9	0.206031	0.220063	0.041402
0.083600	9	0.216836	0.202383	0.046975
0.084300	9	0.230447	0.231429	0.033555
0.085000	9	0.224694	0.231429	0.035296
0.085700	12	0.244058	0.233955	0.038634
0.086400	12	0.237639	0.247216	0.041670
0.087100	11	0.249569	0.250373	0.046816
0.087800	10	0.258329	0.253530	0.035465
0.088500	9	0.255845	0.244058	0.034565
0.089200	9	0.253039	0.245321	0.036210
0.089900	9	0.257670	0.257950	0.038351
0.090600	9	0.257389	0.249110	0.043296
0.091300	12	0.253530	0.251004	0.056206
0.092000	14	0.236752	0.230167	0.063911
0.092700	10	0.242543	0.263002	0.080631
0.093400	9	0.238726	0.266790	0.087479
0.094100	9	0.240270	0.244058	0.078708
0.094800	9	0.248549	0.256687	0.082483
0.095500	9	0.246023	0.270579	0.085961
0.096200	12	0.255530	0.266159	0.069618
0.096900	10	0.243301	0.250373	0.058115
0.097600	13	0.262419	0.278156	0.052971
0.098300	10	0.267422	0.270579	0.054390
0.099000	9	0.266369	0.249110	0.047466
0.099700	9	0.261879	0.265527	0.050647
0.100400	9	0.268053	0.256687	0.044852
0.101100	9	0.270439	0.273105	0.042542
0.101800	12	0.274368	0.262370	0.047129
0.102500	12	0.269211	0.252899	0.036882
0.103200	12	0.280156	0.266790	0.048915
0.103900	9	0.273947	0.269316	0.038097
0.104600	9	0.274789	0.261739	0.035621
0.105300	9	0.281524	0.275631	0.040179
0.106000	9	0.289101	0.281945	0.033939
0.106700	11	0.278730	0.254161	0.049578
0.107400	11	0.274368	0.264265	0.043482
0.108100	13	0.289620	0.290785	0.040611
0.108800	10	0.282450	0.285102	0.036507
0.109500	9	0.276332	0.261739	0.047701
0.110200	9	0.278297	0.268053	0.042237
0.110900	9	0.286435	0.275631	0.038037
0.111600	9	0.285313	0.284471	0.043772
0.112300	12	0.276788	0.290154	0.049531
0.113000	12	0.276367	0.264265	0.033454
0.113700	11	0.277812	0.261739	0.037231
0.114400	10	0.290280	0.287628	0.050605
0.115100	9	0.279560	0.271842	0.044747
0.115800	9	0.283629	0.286997	0.043622
0.116500	9	0.284611	0.271842	0.055239
0.117200	11	0.284241	0.274368	0.038999
0.117900	11	0.277582	0.271842	0.037037
0.118600	13	0.278254	0.257950	0.046648
0.119300	10	0.280556	0.276894	0.047795
0.120000	9	0.280963	0.278156	0.046921
0.120700	9	0.285453	0.274368	0.043303
0.121400	9	0.281243	0.278156	0.035884
0.122100	9	0.279560	0.270579	0.040842
0.122800	12	0.285628	0.273736	0.043313
0.123500	12	0.280682	0.271211	0.047909
0.124200	11	0.276434	0.271842	0.048847
0.124900	10	0.285355	0.276893	0.034005
0.125600	9	0.291627	0.302151	0.036824
0.126300	9	0.273385	0.265527	0.041600
0.127000	9	0.284892	0.266790	0.044455
0.127700	11	0.275057	0.266790	0.042645
0.128400	10	0.277778	0.274368	0.039231
0.129100	14	0.278066	0.276893	0.033999
0.129800	10	0.285102	0.280051	0.032870
0.130500	9	0.284471	0.278156	0.044002
0.131200	9	0.277735	0.269316	0.053361
0.131900	9	0.282787	0.284471	0.046030
0.132600	9	0.285734	0.260476	0.047388
0.133300	12	0.279630	0.280682	0.038537
0.134000	10	0.276136	0.267422	0.041149
0.134700	13	0.280294	0.270579	0.047350
0.135400	10	0.289775	0.289522	0.045941
0.136100	9	0.272123	0.260476	0.049815
0.136800	9	0.271561	0.260476	0.042011
0.137500	9	0.281384	0.286997	0.032060
0.138200	11	0.285734	0.285734	0.040019
0.138900	10	0.266538	0.259845	0.049135
0.139600	12	0.276683	0.271842	0.039291
0.140300	12	0.278156	0.269316	0.042302
0.141000	9	0.267913	0.260476	0.039307
0.141700	9	0.287839	0.297100	0.041481
0.142400	9	0.289803	0.284471	0.035887
0.143100	9	0.269597	0.281945	0.045576
0.143800	12	0.283313	0.276894	0.042143
0.144500	10	0.275504	0.277525	0.033406
0.145200	13	0.271453	0.266790	0.034277
0.145900	10	0.288260	0.302151	0.036923
0.146600	9	0.291768	0.290785	0.037111
0.147300	9	0.286576	0.285734	0.040047
0.148000	9	0.268895	0.244058	0.047872
0.148700	11	0.278386	0.289522	0.050618
0.149400	10	0.285481	0.283208	0.043049
0.150100	12	0.274473	0.278788	0.033951
0.150800	11	0.280912	0.285734	0.047086
0.151500	10	0.286618	0.295837	0.043297
0.152200	9	0.285453	0.271842	0.048773
0.152900	9	0.280542	0.285734	0.046254
0.153600	9	0.279700	0.275631	0.040525
0.154300	12	0.280998	0.278156	0.041182
0.155000	10	0.288891	0.281314	0.043463
0.155700	13	0.280196	0.256687	0.046842
0.156400	10	0.281187	0.292048	0.049454
0.157100	9	0.276192	0.284471	0.041078
0.157800	9	0.278858	0.289522	0.034958
0.158500	9	0.283489	0.280682	0.037048
0.159200	11	0.278616	0.290785	0.043924
0.159900	10	0.270832	0.253530	0.049394
0.160600	12	0.284366	0.285102	0.050348
0.161300	11	0.272186	0.266790	0.037899
0.162000	10	0.276894	0.274999	0.037904
0.162700	9	0.295697	0.305940	0.052418
0.163400	9	0.293451	0.302151	0.044731
0.164100	9	0.275631	0.265527	0.039341
0.164800	11	0.268398	0.252899	0.046775
0.165500	11	0.277123	0.292048	0.039699
0.166200	13	0.282431	0.288260	0.039586
0.166900	10	0.290406	0.282577	0.044078
0.167600	9	0.284471	0.297100	0.048119
0.168300	9	0.290926	0.303414	0.048790
0.169000	9	0.284331	0.289522	0.044429
0.169700	9	0.271561	0.273105	0.041706
0.170400	12	0.278472	0.272473	0.037503
0.171100	12	0.296047	0.294574	0.039457
0.171800	11	0.283897	0.289522	0.046912
0.172500	10	0.285355	0.290154	0.051015
0.173200	9	0.278156	0.303414	0.040060
0.173900	9	0.290224	0.299626	0.032559
0.174600	9	0.295416	0.314780	0.044923
0.175300	11	0.285619	0.269316	0.051711
0.176000	10	0.285607	0.280682	0.041551
0.176700	12	0.286891	0.300888	0.046055
0.177400	11	0.281256	0.281945	0.043266
0.178100	10	0.281187	0.287628	0.049046
0.178800	9	0.289382	0.273105	0.048179
0.179500	9	0.300748	0.316043	0.041488
0.180200	9	0.291768	0.302151	0.040381
0.180900	12	0.267317	0.261107	0.048569
0.181600	10	0.286870	0.305940	0.038136
0.182300	13	0.289134	0.288260	0.040965
0.183000	10	0.298110	0.314149	0.051843
0.183700	9	0.285032	0.294574	0.049863
0.184400	9	0.294574	0.302151	0.041813
0.185100	9	0.281524	0.285734	0.037999
0.185800	11	0.287111	0.305940	0.045052
0.186500	10	0.293311	0.302151	0.043234
0.187200	12	0.296468	0.288891	0.045290
0.187900	11	0.291589	0.275631	0.037972
0.188600	10	0.295711	0.309729	0.063027
0.189300	9	0.283910	0.305940	0.042235
0.190000	9	0.282226	0.275631	0.039948
0.190700	9	0.297100	0.292048	0.036495
0.191400	12	0.288680	0.279419	0.042419
0.192100	10	0.285860	0.307203	0.056225
0.192800	13	0.280876	0.273105	0.043021
0.193500	10	0.296216	0.305309	0.048298
0.194200	9	0.283910	0.302151	0.058452
0.194900	9	0.280121	0.261739	0.042955
0.195600	9	0.292188	0.292048	0.037940
0.196300	11	0.287800	0.257950	0.052509
0.197000	10	0.278156	0.263002	0.043429
0.197700	12	0.292153	0.300257	0.048116
0.198400	11	0.294689	0.288260	0.042750
0.199100	10	0.298741	0.287628	0.045796
0.199800	9	0.303695	0.281945	0.043229
0.200500	9	0.292469	0.269316	0.047745
0.201200	9	0.283068	0.273105	0.039599
0.201900	12	0.281419	0.282577	0.048234
0.202600	10	0.301520	0.281314	0.046258
0.203300	13	0.292048	0.288260	0.037266
0.204000	10	0.294827	0.301520	0.055978
0.204700	9	0.288680	0.275631	0.045312
0.205400	9	0.285734	0.275631	0.037943
0.206100	9	0.288680	0.290785	0.041677
0.206800	11	0.284815	0.286997	0.047951
0.207500	10	0.282829	0.265528	0.040452
0.208200	12	0.305624	0.295205	0.045015
0.208900	11	0.282289	0.278156	0.041677
0.209600	10	0.291164	0.294574	0.045935
0.210300	9	0.283629	0.275631	0.035982
0.211000	9	0.286435	0.283208	0.036530
0.211700	9	0.286997	0.275631	0.038902
0.212400	12	0.287944	0.288891	0.046109
0.213100	10	0.295205	0.279419	0.041806
0.213800	11	0.281486	0.281945	0.041514
0.214500	11	0.287800	0.281945	0.042406
0.215200	10	0.290406	0.274999	0.045105
0.215900	9	0.284751	0.273105	0.045076
0.216600	9	0.297240	0.264265	0.047847
0.217300	11	0.282864	0.274368	0.042786
0.218000	10	0.279546	0.273736	0.040193
0.218700	10	0.288638	0.290785	0.044028
0.219400	13	0.286899	0.275631	0.039099
0.220100	10	0.301267	0.293311	0.050240
0.220800	9	0.277314	0.264265	0.054277
0.221500	9	0.281103	0.265527	0.049677
0.222200	9	0.282085	0.274368	0.030707
0.222900	12	0.290259	0.280682	0.043761
0.223600	9	0.295977	0.278156	0.033405
0.224300	12	0.294574	0.281945	0.056966
0.225000	11	0.287800	0.273105	0.046020
0.225700	10	0.288638	0.291417	0.038884
0.226400	9	0.286014	0.269316	0.043714
0.227100	9	0.282506	0.281945	0.040030
0.227800	11	0.285160	0.293311	0.019478
0.228500	10	0.290912	0.280051	0.045318
0.229200	10	0.287628	0.262370	0.053081
0.229900	13	0.283111	0.280682	0.043358
0.230600	10	0.289270	0.285102	0.041471
0.231300	9	0.285874	0.273105	0.051162
0.232000	9	0.291206	0.286997	0.044034
0.232700	9	0.287558	0.275631	0.035075
0.233400	11	0.287800	0.283208	0.039026
0.234100	10	0.284345	0.269948	0.048802
0.234800	12	0.286891	0.287628	0.044972
0.235500	11	0.277697	0.271842	0.039984
0.236200	10	0.289144	0.281945	0.047438
0.236900	9	0.278437	0.273105	0.046106
0.237600	9	0.281664	0.275631	0.040769
0.238300	9	0.274368	0.279419	0.037131
0.239000	12	0.280261	0.266159	0.040344
0.239700	10	0.279672	0.271211	0.047276
0.240400	13	0.293408	0.284471	0.041106
0.241100	10	0.295711	0.301520	0.046417
0.241800	9	0.274929	0.255424	0.045379
0.242500	9	0.276473	0.256687	0.041065
0.243200	9	0.291066	0.289522	0.032747
0.243900	11	0.284241	0.268053	0.038786
0.244600	10	0.292427	0.291417	0.047740
0.245300	12	0.286891	0.266159	0.052133
0.246000	11	0.275860	0.270579	0.036131
0.246700	10	0.287375	0.285102	0.036309
0.247400	9	0.277455	0.280682	0.034530
0.248100	9	0.285453	0.270579	0.037429
0.248800	9	0.289663	0.300888	0.042413
0.249500	12	0.280577	0.274999	0.050382
0.250200	10	0.281314	0.280682	0.051380
0.250900	13	0.278059	0.271842	0.040481
0.251600	9	0.286716	0.289522	0.040245
0.252300	10	0.292806	0.287628	0.050345
0.253000	9	0.287839	0.265527	0.038843
0.253700	9	0.289101	0.281945	0.032230
0.254400	11	0.268283	0.257950	0.044623
0.255100	10	0.275504	0.248478	0.048237
0.255800	12	0.290259	0.297100	0.041817
0.256500	11	0.276894	0.268053	0.037687
0.257200	10	0.286113	0.295205	0.048123
0.257900	9	0.277174	0.260476	0.038401
0.258600	9	0.283348	0.269316	0.040071
0.259300	9	0.280822	0.275631	0.035278
0.260000	12	0.268053	0.257950	0.041152
0.260700	10	0.296721	0.298363	0.045482
0.261400	11	0.287226	0.300888	0.043538
0.262100	11	0.269775	0.263002	0.032190
0.262800	10	0.295332	0.288891	0.037993
0.263500	9	0.290785	0.290785	0.030940
0.264200	9	0.290505	0.284471	0.049940
0.264900	11	0.288260	0.283208	0.042969
0.265600	10	0.274873	0.269948	0.044231
0.266300	10	0.283713	0.277525	0.042704
0.267000	13	0.284762	0.266790	0.043681
0.267700	10	0.288007	0.295205	0.034302
0.268400	9	0.289101	0.284471	0.038943
0.269100	9	0.285734	0.280682	0.054916
0.269800	9	0.293311	0.317306	0.044051
0.270500	12	0.275104	0.272473	0.037344
0.271200	9	0.279419	0.278156	0.034841
0.271900	12	0.292680	0.295205	0.042610
0.272600	11	0.290441	0.294574	0.034924
0.273300	10	0.297605	0.293943	0.041296
0.274000	9	0.292469	0.284471	0.051295
0.274700	9	0.269176	0.283208	0.035081
0.275400	11	0.281945	0.261739	0.039443
0.276100	10	0.298363	0.294574	0.056246
0.276800	10	0.289144	0.302151	0.047033
0.277500	13	0.290008	0.283208	0.047917
0.278200	9	0.287839	0.314780	0.047727
0.278900	10	0.303035	0.319832	0.039316
0.279600	9	0.290364	0.280682	0.049484
0.280300	9	0.271842	0.265527	0.055602
0.281000	12	0.285628	0.284471	0.045739
0.281700	9	0.287839	0.274368	0.042831
0.282400	12	0.288891	0.268053	0.042623
0.283100	11	0.295722	0.310992	0.032491
0.283800	10	0.300257	0.298363	0.042607
0.284500	9	0.291206	0.274368	0.049820
0.285200	9	0.290224	0.299626	0.037794
0.285900	11	0.294574	0.294574	0.047571
0.286600	10	0.282703	0.276894	0.037829
0.287300	10	0.299373	0.302151	0.035414
0.288000	13	0.290202	0.280682	0.030296
0.288700	9	0.289382	0.281945	0.040894
0.289400	10	0.304172	0.297731	0.050434
0.290100	9	0.287698	0.285734	0.048730
0.290800	9	0.291066	0.300888	0.037015
0.291500	11	0.290785	0.290785	0.043618
0.292200	10	0.278788	0.271210	0.034945
0.292900	12	0.301836	0.292680	0.045271
0.293600	11	0.289752	0.300888	0.051448
0.294300	10	0.297984	0.304046	0.038264
0.295000	9	0.288680	0.295837	0.038412
0.295700	9	0.282927	0.273105	0.029315
0.296400	11	0.290556	0.303414	0.033186
0.297100	10	0.288512	0.282577	0.040329
0.297800	10	0.289901	0.294574	0.041515
0.298500	11	0.296985	0.271842	0.040252
0.299200	11	0.295722	0.290785	0.049323
0.299900	10	0.287881	0.290154	0.030795
