x 20.000000
y 3.000000
r 127.000000
dw .254
w 30.406763
wstd 0.009556
# theta(rad)	count	mean(uA)	median(uA)	std dev(uA)
-0.300000	17	0.361507	0.351404	0.042699
-0.299300	10	0.367695	0.374767	0.032150
-0.298600	9	0.359683	0.352667	0.035196
-0.297900	9	0.364314	0.379188	0.039695
-0.297200	9	0.365015	0.382976	0.041579
-0.296500	9	0.366418	0.360244	0.042086
-0.295800	11	0.373792	0.382976	0.035866
-0.295100	16	0.360402	0.371610	0.039428
-0.294400	9	0.364734	0.342564	0.039928
-0.293700	9	0.359683	0.360244	0.031123
-0.293000	9	0.362770	0.371610	0.038453
-0.292300	9	0.362910	0.367822	0.037574
-0.291600	9	0.362068	0.352667	0.043087
-0.290900	16	0.363796	0.352667	0.040041
-0.290200	11	0.359670	0.371610	0.035770
-0.289500	9	0.362349	0.341301	0.035049
-0.288800	9	0.362910	0.350141	0.028566
-0.288100	9	0.361788	0.348878	0.046251
-0.287400	9	0.358420	0.343827	0.039116
-0.286700	9	0.362209	0.340038	0.037615
-0.286000	18	0.361928	0.363401	0.034225
-0.285300	9	0.350983	0.343827	0.031910
-0.284600	9	0.361367	0.350141	0.041432
-0.283900	9	0.366839	0.352667	0.036319
-0.283200	9	0.366839	0.379188	0.039376
-0.282500	9	0.355333	0.343827	0.046407
-0.281800	12	0.359297	0.349510	0.031749
-0.281100	15	0.367485	0.352667	0.032192
-0.280400	9	0.355614	0.348878	0.040940
-0.279700	9	0.355052	0.350141	0.041364
-0.279000	9	0.371189	0.372873	0.030525
-0.278300	9	0.371189	0.371610	0.033408
-0.277600	9	0.351965	0.340038	0.044927
-0.276900	18	0.364384	0.355824	0.032810
-0.276200	9	0.369786	0.369084	0.045500
-0.275500	9	0.363752	0.379188	0.043319
-0.274800	9	0.363612	0.353930	0.035336
-0.274100	9	0.352386	0.347615	0.031343
-0.273400	9	0.354210	0.358981	0.025521
-0.272700	9	0.359823	0.345090	0.042814
-0.272000	18	0.354491	0.358350	0.041493
-0.271300	9	0.352948	0.357718	0.030738
-0.270600	9	0.357017	0.360244	0.044268
-0.269900	9	0.362770	0.361507	0.039368
-0.269200	9	0.354912	0.343827	0.034921
-0.268500	9	0.349299	0.348878	0.032153
-0.267800	13	0.366753	0.371610	0.044724
-0.267100	14	0.355734	0.368453	0.038281
-0.266400	9	0.360806	0.370347	0.030502
-0.265700	9	0.355193	0.351404	0.028903
-0.265000	9	0.358981	0.350141	0.035987
-0.264300	9	0.356736	0.351404	0.035694
-0.263600	9	0.360104	0.353930	0.046058
-0.262900	18	0.360174	0.362770	0.034868
-0.262200	9	0.368663	0.379188	0.035013
-0.261500	9	0.361367	0.364033	0.030724
-0.260800	9	0.351825	0.350141	0.034069
-0.260100	9	0.354351	0.357718	0.042702
-0.259400	9	0.365436	0.379188	0.039564
-0.258700	9	0.359402	0.355193	0.034457
-0.258000	18	0.358139	0.363401	0.036930
-0.257300	9	0.367120	0.379188	0.038292
-0.256600	9	0.357297	0.365296	0.030304
-0.255900	9	0.355614	0.365296	0.042519
-0.255200	9	0.359964	0.362770	0.033465
-0.254500	9	0.357999	0.370347	0.039237
-0.253800	18	0.360034	0.355824	0.035251
-0.253100	9	0.362349	0.379188	0.035341
-0.252400	9	0.363191	0.386765	0.041571
-0.251700	9	0.355193	0.358981	0.037297
-0.251000	9	0.359122	0.362770	0.035905
-0.250300	9	0.360946	0.362770	0.036573
-0.249600	9	0.361367	0.348878	0.035318
-0.248900	18	0.352386	0.360244	0.033073
-0.248200	9	0.358139	0.377925	0.040579
-0.247500	9	0.355473	0.365296	0.034312
-0.246800	9	0.368523	0.386765	0.033355
-0.246100	9	0.363051	0.366559	0.031394
-0.245400	9	0.361226	0.348878	0.041223
-0.244700	11	0.362081	0.360244	0.036552
-0.244000	16	0.366085	0.375399	0.038081
-0.243300	9	0.353368	0.347615	0.039754
-0.242600	9	0.359122	0.370347	0.036507
-0.241900	9	0.367260	0.361507	0.044753
-0.241200	9	0.376662	0.357718	0.045029
-0.240500	9	0.359823	0.361507	0.033840
-0.239800	18	0.359332	0.379188	0.043927
-0.239100	9	0.366980	0.365296	0.032175
-0.238400	9	0.357718	0.360244	0.040122
-0.237700	9	0.360946	0.365296	0.037064
-0.237000	9	0.364594	0.369084	0.032900
-0.236300	9	0.360104	0.364033	0.033197
-0.235600	9	0.358701	0.362770	0.038883
-0.234900	18	0.365506	0.361507	0.038424
-0.234200	9	0.361086	0.353930	0.035351
-0.233500	9	0.373013	0.372873	0.041084
-0.232800	9	0.353088	0.353930	0.031384
-0.232100	9	0.356315	0.352667	0.036478
-0.231400	9	0.360244	0.361507	0.042623
-0.230700	18	0.360174	0.359613	0.036560
-0.230000	9	0.356736	0.356456	0.034239
-0.229300	9	0.362349	0.369084	0.030722
-0.228600	9	0.356877	0.371610	0.036699
-0.227900	9	0.358981	0.357718	0.043365
-0.227200	9	0.361507	0.364033	0.035690
-0.226500	9	0.166180	0.112718	0.105711
-0.225800	18	0.253249	0.251004	0.063060
-0.225100	9	0.338635	0.337512	0.035846
-0.224400	9	0.359262	0.356456	0.041715
-0.223700	9	0.369365	0.374136	0.035043
-0.223000	9	0.356035	0.364033	0.045273
-0.222300	9	0.352527	0.342564	0.038977
-0.221600	9	0.369225	0.353930	0.049098
-0.220900	18	0.363963	0.366559	0.046431
-0.220200	9	0.352948	0.352667	0.035305
-0.219500	9	0.363612	0.361507	0.037221
-0.218800	9	0.368243	0.364033	0.036858
-0.218100	9	0.351264	0.337512	0.040124
-0.217400	9	0.362349	0.343827	0.050375
-0.216700	18	0.361367	0.348247	0.048019
-0.216000	9	0.355614	0.361507	0.034693
-0.215300	9	0.354210	0.343827	0.043641
-0.214600	9	0.351404	0.340038	0.038934
-0.213900	9	0.369365	0.369084	0.043666
-0.213200	9	0.359964	0.366559	0.035694
-0.212500	9	0.357157	0.343827	0.036641
-0.211800	18	0.357087	0.352667	0.041520
-0.211100	9	0.363051	0.358981	0.042330
-0.210400	9	0.360525	0.356456	0.039255
-0.209700	9	0.356315	0.346352	0.040568
-0.209000	9	0.366559	0.361507	0.044047
-0.208300	9	0.360104	0.343827	0.041286
-0.207600	14	0.357899	0.370979	0.041351
-0.206900	13	0.358107	0.341301	0.047441
-0.206200	9	0.360665	0.370347	0.043021
-0.205500	9	0.363331	0.360244	0.037284
-0.204800	9	0.350562	0.356456	0.042922
-0.204100	9	0.354070	0.338775	0.043281
-0.203400	9	0.360946	0.356456	0.045740
-0.202700	18	0.355614	0.344458	0.038781
-0.202000	9	0.354772	0.333724	0.050167
-0.201300	9	0.351965	0.346352	0.045152
-0.200600	9	0.358280	0.371610	0.043231
-0.199900	9	0.355052	0.346352	0.034889
-0.199200	9	0.348878	0.353930	0.037459
-0.198500	9	0.348878	0.348878	0.043715
-0.197800	18	0.355824	0.345721	0.043249
-0.197100	9	0.354351	0.360244	0.050160
-0.196400	9	0.344669	0.314780	0.065432
-0.195700	9	0.352106	0.332461	0.044479
-0.195000	9	0.359543	0.343827	0.038241
-0.194300	9	0.346914	0.345090	0.047122
-0.193600	16	0.340590	0.333092	0.062764
-0.192900	11	0.347615	0.331198	0.046676
-0.192200	9	0.344949	0.337512	0.048242
-0.191500	9	0.345090	0.341301	0.047080
-0.190800	9	0.355473	0.357718	0.051522
-0.190100	9	0.346072	0.313517	0.046152
-0.189400	9	0.352948	0.347615	0.043283
-0.188700	18	0.350983	0.341932	0.046468
-0.188000	9	0.344669	0.329935	0.047567
-0.187300	9	0.351825	0.343827	0.041413
-0.186600	9	0.350141	0.358981	0.048115
-0.185900	9	0.349299	0.337512	0.042382
-0.185200	9	0.339196	0.327409	0.051664
-0.184500	11	0.350600	0.364033	0.049948
-0.183800	16	0.349904	0.351404	0.040374
-0.183100	9	0.341161	0.346352	0.041790
-0.182400	9	0.355614	0.343827	0.058811
-0.181700	9	0.355193	0.380450	0.055430
-0.181000	9	0.341862	0.338775	0.052186
-0.180300	9	0.349580	0.337512	0.048756
-0.179600	18	0.346142	0.357718	0.048984
-0.178900	9	0.344528	0.341301	0.044931
-0.178200	9	0.342985	0.356456	0.041452
-0.177500	9	0.348598	0.348878	0.059565
-0.176800	9	0.345931	0.377925	0.051640
-0.176100	9	0.343827	0.343827	0.041138
-0.175400	9	0.342143	0.324883	0.037359
-0.174700	18	0.345721	0.364664	0.048610
-0.174000	9	0.341862	0.348878	0.044376
-0.173300	9	0.341722	0.356456	0.036655
-0.172600	9	0.330496	0.338775	0.047156
-0.171900	9	0.352246	0.331198	0.050652
-0.171200	9	0.345931	0.346352	0.038448
-0.170500	14	0.340218	0.348247	0.041546
-0.169800	13	0.341884	0.366559	0.046509
-0.169100	9	0.346212	0.361507	0.050982
-0.168400	9	0.342423	0.333724	0.046897
-0.167700	9	0.343125	0.341301	0.049208
-0.167000	9	0.348878	0.343827	0.040003
-0.166300	9	0.343686	0.350141	0.041015
-0.165600	18	0.342494	0.355193	0.049196
-0.164900	9	0.346773	0.367822	0.045112
-0.164200	9	0.340599	0.356456	0.038880
-0.163500	9	0.332882	0.310992	0.044927
-0.162800	9	0.349860	0.356456	0.040148
-0.162100	9	0.347896	0.365296	0.047488
-0.161400	11	0.332575	0.337512	0.049347
-0.160700	16	0.344221	0.350773	0.043743
-0.160000	9	0.340178	0.357718	0.042621
-0.159300	9	0.341582	0.361507	0.036562
-0.158600	9	0.335548	0.342564	0.042798
-0.157900	9	0.338354	0.338775	0.043634
-0.157200	9	0.335267	0.347615	0.046694
-0.156500	15	0.346184	0.361507	0.050658
-0.155800	12	0.334145	0.339407	0.041231
-0.155100	9	0.331057	0.336249	0.034751
-0.154400	9	0.346633	0.364033	0.040547
-0.153700	9	0.337091	0.338775	0.040818
-0.153000	9	0.331899	0.338775	0.047385
-0.152300	9	0.337372	0.358981	0.060130
-0.151600	18	0.342915	0.352667	0.046281
-0.150900	9	0.340319	0.327409	0.041146
-0.150200	9	0.339477	0.369084	0.049223
-0.149500	9	0.345370	0.346352	0.050557
-0.148800	9	0.336951	0.358981	0.047205
-0.148100	9	0.338775	0.348878	0.044757
-0.147400	14	0.342564	0.364033	0.046465
-0.146700	13	0.343632	0.367822	0.039003
-0.146000	9	0.339336	0.367822	0.050442
-0.145300	9	0.342283	0.366559	0.048159
-0.144600	9	0.344809	0.343827	0.041146
-0.143900	9	0.346352	0.364033	0.045394
-0.143200	9	0.345090	0.366559	0.043156
-0.142500	16	0.341853	0.348247	0.043262
-0.141800	11	0.352552	0.360244	0.057282
-0.141100	9	0.349580	0.366559	0.044915
-0.140400	9	0.341862	0.340038	0.041113
-0.139700	9	0.332180	0.346352	0.048129
-0.139000	9	0.349580	0.365296	0.042537
-0.138300	11	0.339464	0.358981	0.043319
-0.137600	16	0.339328	0.350141	0.042831
-0.136900	9	0.345370	0.336249	0.048532
-0.136200	9	0.346633	0.351404	0.048236
-0.135500	9	0.335688	0.331198	0.038802
-0.134800	9	0.326287	0.328672	0.034813
-0.134100	9	0.342985	0.360244	0.044789
-0.133400	14	0.343376	0.362139	0.040296
-0.132700	13	0.334501	0.338775	0.045347
-0.132000	9	0.341161	0.317306	0.042065
-0.131300	9	0.340599	0.327409	0.047035
-0.130600	9	0.332882	0.345090	0.040526
-0.129900	9	0.334565	0.343827	0.062796
-0.129200	9	0.338214	0.348878	0.039297
-0.128500	17	0.346872	0.367822	0.043780
-0.127800	10	0.333597	0.330566	0.043997
-0.127100	9	0.330075	0.321095	0.048917
-0.126400	9	0.341722	0.361507	0.042344
-0.125700	9	0.349580	0.370347	0.045895
-0.125000	9	0.332741	0.323620	0.044005
-0.124300	11	0.335101	0.331198	0.044309
-0.123600	16	0.343432	0.341301	0.038258
-0.122900	9	0.350141	0.356456	0.047975
-0.122200	9	0.330496	0.326146	0.048683
-0.121500	9	0.346493	0.356456	0.052174
-0.120800	9	0.340459	0.333724	0.048770
-0.120100	9	0.338775	0.357718	0.039490
-0.119400	15	0.338859	0.331198	0.046184
-0.118700	12	0.338670	0.331198	0.046274
-0.118000	9	0.342985	0.352667	0.041902
-0.117300	9	0.335407	0.326146	0.045701
-0.116600	9	0.335969	0.334986	0.050728
-0.115900	9	0.339617	0.351404	0.044578
-0.115200	11	0.331542	0.326146	0.038547
-0.114500	16	0.340906	0.343195	0.045296
-0.113800	9	0.339196	0.350141	0.041524
-0.113100	9	0.341020	0.322358	0.041532
-0.112400	9	0.334986	0.326146	0.036422
-0.111700	9	0.337091	0.342564	0.041541
-0.111000	9	0.336670	0.343827	0.036154
-0.110300	14	0.334806	0.321095	0.039967
-0.109600	13	0.341884	0.351404	0.040402
-0.108900	9	0.338214	0.340038	0.039901
-0.108200	9	0.327128	0.316043	0.044042
-0.107500	9	0.340599	0.326146	0.035236
-0.106800	9	0.336951	0.343827	0.036350
-0.106100	10	0.328041	0.328041	0.035475
-0.105400	14	0.339767	0.353298	0.039480
-0.104700	12	0.343511	0.331829	0.041516
-0.104000	9	0.335267	0.319832	0.036339
-0.103300	9	0.329374	0.338775	0.047820
-0.102600	9	0.340599	0.340038	0.049556
-0.101900	9	0.337793	0.323620	0.042672
-0.101200	11	0.335446	0.322358	0.051909
-0.100500	16	0.329856	0.329935	0.045971
-0.099800	9	0.330917	0.322358	0.045898
-0.099100	9	0.336811	0.345090	0.042611
-0.098400	9	0.321656	0.310992	0.037107
-0.097700	9	0.321375	0.322358	0.042966
-0.097000	9	0.339336	0.366559	0.042586
-0.096300	14	0.340760	0.340669	0.045506
-0.095600	13	0.315752	0.304677	0.050214
-0.094900	9	0.337232	0.350141	0.029291
-0.094200	9	0.329374	0.322358	0.031553
-0.093500	9	0.325304	0.308466	0.052968
-0.092800	9	0.330777	0.319832	0.051540
-0.092100	11	0.330624	0.332461	0.031837
-0.091400	14	0.334986	0.334355	0.049211
-0.090700	11	0.324539	0.312254	0.045646
-0.090000	9	0.326567	0.331198	0.031598
-0.089300	9	0.321656	0.318569	0.044135
-0.088600	9	0.333864	0.333724	0.048852
-0.087900	9	0.337372	0.334986	0.042039
-0.087200	14	0.326597	0.312254	0.046179
-0.086500	13	0.326146	0.342564	0.042247
-0.085800	9	0.319551	0.297100	0.048199
-0.085100	9	0.325445	0.299626	0.042860
-0.084400	9	0.323340	0.338775	0.042552
-0.083700	9	0.315903	0.324883	0.033090
-0.083000	10	0.323368	0.316675	0.039827
-0.082300	14	0.324974	0.328672	0.037665
-0.081600	12	0.328041	0.317306	0.043051
-0.080900	9	0.320533	0.321095	0.042328
-0.080200	9	0.327409	0.333724	0.044935
-0.079500	9	0.324041	0.326146	0.040320
-0.078800	9	0.322217	0.319832	0.041509
-0.078100	11	0.320061	0.329935	0.049737
-0.077400	15	0.329009	0.334986	0.041958
-0.076700	10	0.321347	0.331829	0.046900
-0.076000	9	0.352527	0.365296	0.034726
-0.075300	9	0.309448	0.302151	0.038424
-0.074600	9	0.307203	0.295837	0.036718
-0.073900	9	0.330496	0.343827	0.041520
-0.073200	14	0.325515	0.336881	0.040592
-0.072500	13	0.311769	0.310992	0.043629
-0.071800	9	0.325164	0.333724	0.043662
-0.071100	9	0.328812	0.332461	0.038972
-0.070400	9	0.314921	0.324883	0.041291
-0.069700	9	0.306642	0.299626	0.047133
-0.069000	11	0.319832	0.328672	0.040395
-0.068300	13	0.320317	0.329935	0.046241
-0.067600	12	0.317937	0.317937	0.055165
-0.066900	9	0.321937	0.338775	0.038407
-0.066200	9	0.314780	0.318569	0.043267
-0.065500	9	0.309588	0.304677	0.045388
-0.064800	9	0.317166	0.318569	0.045997
-0.064100	11	0.316043	0.328672	0.040584
-0.063400	15	0.318485	0.329935	0.043527
-0.062700	10	0.309729	0.295205	0.044928
-0.062000	9	0.314921	0.322358	0.037361
-0.061300	9	0.317867	0.336249	0.047411
-0.060600	9	0.316885	0.312254	0.035481
-0.059900	10	0.312507	0.312254	0.040695
-0.059200	13	0.318763	0.336249	0.040949
-0.058500	13	0.314877	0.326146	0.040002
-0.057800	9	0.308606	0.308466	0.043428
-0.057100	9	0.325024	0.322358	0.051113
-0.056400	9	0.320393	0.316043	0.029486
-0.055700	9	0.316745	0.321095	0.044575
-0.055000	11	0.313058	0.308466	0.041146
-0.054300	13	0.317695	0.324883	0.038885
-0.053600	12	0.307834	0.306571	0.048793
-0.052900	9	0.310150	0.295837	0.046546
-0.052200	9	0.321656	0.331198	0.064260
-0.051500	9	0.317166	0.321095	0.035964
-0.050800	9	0.321937	0.299626	0.048251
-0.050100	14	0.311984	0.311623	0.047335
-0.049400	12	0.319095	0.307834	0.045260
-0.048700	10	0.305309	0.305940	0.053940
-0.048000	9	0.313517	0.305940	0.044598
-0.047300	9	0.312956	0.308466	0.038181
-0.046600	9	0.320814	0.319832	0.047767
-0.045900	11	0.311795	0.308466	0.037103
-0.045200	13	0.310506	0.309729	0.038807
-0.044500	12	0.320989	0.322358	0.047111
-0.043800	9	0.305098	0.321095	0.038092
-0.043100	9	0.311553	0.323620	0.039834
-0.042400	9	0.314640	0.310992	0.037917
-0.041700	9	0.312956	0.310992	0.041044
-0.041000	11	0.306514	0.302151	0.046571
-0.040300	14	0.312435	0.297100	0.042810
-0.039600	11	0.302840	0.318569	0.047205
-0.038900	9	0.310992	0.317306	0.039807
-0.038200	9	0.293311	0.305940	0.045257
-0.037500	9	0.307483	0.316043	0.040103
-0.036800	10	0.303035	0.300888	0.042983
-0.036100	13	0.309923	0.312254	0.045019
-0.035400	13	0.301957	0.307203	0.043921
-0.034700	9	0.293451	0.297100	0.045962
-0.034000	9	0.290645	0.284471	0.042308
-0.033300	9	0.299906	0.309729	0.044883
-0.032600	9	0.298784	0.302151	0.041486
-0.031900	11	0.297789	0.298363	0.038882
-0.031200	13	0.287191	0.274368	0.038019
-0.030500	12	0.298257	0.312254	0.045366
-0.029800	9	0.275911	0.284471	0.049376
-0.029100	9	0.278156	0.270579	0.043119
-0.028400	9	0.289242	0.275631	0.048371
-0.027700	9	0.288821	0.285734	0.039401
-0.027000	14	0.282216	0.285102	0.035851
-0.026300	11	0.269087	0.254161	0.051869
-0.025600	11	0.273220	0.283208	0.053692
-0.024900	9	0.279560	0.279419	0.051089
-0.024200	9	0.255986	0.240270	0.044455
-0.023500	9	0.251916	0.233955	0.048393
-0.022800	11	0.266102	0.260476	0.042104
-0.022100	12	0.255424	0.244058	0.047990
-0.021400	13	0.248818	0.256687	0.044184
-0.020700	9	0.232833	0.235218	0.056777
-0.020000	9	0.239428	0.220063	0.046114
-0.019300	9	0.235218	0.230167	0.034012
-0.018600	9	0.233394	0.245321	0.038329
-0.017900	11	0.213634	0.211223	0.043680
-0.017200	13	0.208115	0.188491	0.053232
-0.016500	12	0.207961	0.193543	0.043193
-0.015800	9	0.175582	0.164496	0.035614
-0.015100	9	0.180633	0.179651	0.041795
-0.014400	9	0.165759	0.170811	0.047272
-0.013700	10	0.139617	0.132293	0.042355
-0.013000	13	0.137781	0.131661	0.045073
-0.012300	12	0.114507	0.110824	0.043365
-0.011600	10	0.074957	0.069780	0.042784
-0.010900	9	0.067534	0.052099	0.039775
-0.010200	9	0.041856	0.047048	0.049870
-0.009500	9	0.014074	0.002846	0.047159
-0.008800	11	-0.022978	-0.042609	0.049795
-0.008100	13	-0.049019	-0.064074	0.041896
-0.007400	12	-0.108688	-0.117105	0.038268
-0.006700	9	-0.156809	-0.163823	0.038922
-0.006000	9	-0.198055	-0.209279	0.051724
-0.005300	9	-0.255716	-0.264835	0.046742
-0.004600	9	-0.306362	-0.315341	0.046892
-0.003900	11	-0.397872	-0.392362	0.042735
-0.003200	14	-0.500048	-0.506000	0.053751
-0.002500	11	-0.618261	-0.617113	0.049712
-0.001800	9	-0.757547	-0.753479	0.039513
-0.001100	9	-0.895316	-0.912572	0.049614
-0.000400	9	-1.037714	-1.041362	0.062525
0.000300	11	-1.218821	-1.226971	0.089546
0.001000	12	-1.494441	-1.474449	0.106366
0.001700	12	-1.796319	-1.826096	0.115188
0.002400	10	-2.162591	-2.195420	0.111541
0.003100	9	-2.544612	-2.562850	0.114523
0.003800	9	-2.952166	-3.007301	0.133613
0.004500	9	-3.440248	-3.490894	0.154973
0.005200	11	-4.124857	-4.146208	0.301325
0.005900	13	-5.077262	-4.963140	0.394078
0.006600	12	-6.366044	-6.422758	0.452982
0.007300	9	-7.773227	-7.918992	0.423435
0.008000	9	-9.221201	-9.406388	0.504108
0.008700	9	-10.770186	-10.959444	0.512429
0.009400	10	-12.240524	-12.440526	0.479928
0.010100	13	-14.356736	-13.992320	0.884971
0.010800	11	-16.794703	-16.599680	1.129296
0.011500	11	-19.184890	-19.511340	0.929415
0.012200	9	-20.890713	-21.031568	0.591929
0.012900	9	-21.851024	-21.872488	0.601406
0.013600	9	-22.849776	-22.930584	0.686713
0.014300	11	-24.459764	-24.457124	0.981199
0.015000	13	-26.474832	-26.561956	0.915461
0.015700	11	-27.066669	-27.109944	0.507809
0.016400	10	-27.352370	-27.229262	0.636592
0.017100	9	-28.429828	-28.416780	0.879710
0.017800	9	-30.307101	-30.490044	1.022332
0.018500	9	-31.203159	-31.195864	0.338153
0.019200	11	-30.090245	-30.046856	0.652612
0.019900	13	-28.500601	-28.611228	0.557068
0.020600	12	-27.577227	-27.565756	0.364516
0.021300	9	-27.436688	-27.472324	0.321067
0.022000	9	-27.306915	-27.298076	0.246738
0.022700	9	-26.897958	-26.789232	0.295739
0.023400	11	-26.260527	-26.291748	0.378382
0.024100	12	-26.165168	-26.083412	0.487103
0.024800	11	-26.152972	-26.092252	0.404710
0.025500	11	-25.178324	-25.149052	0.493444
0.026200	9	-23.552930	-23.343472	0.538121
0.026900	9	-22.566803	-22.503812	0.291319
0.027600	9	-22.311468	-22.354820	0.169328
0.028300	11	-22.173687	-22.185624	0.159052
0.029000	13	-21.863262	-21.891428	0.173415
0.029700	12	-21.424250	-21.467812	0.194551
0.030400	9	-21.228960	-21.287884	0.173606
0.031100	9	-21.420041	-21.436876	0.187935
0.031800	9	-21.720411	-21.742436	0.174344
0.032500	10	-22.290552	-22.323886	0.251053
0.033200	13	-23.436422	-23.416704	0.362709
0.033900	10	-23.146625	-23.370618	0.589570
0.034600	12	-22.076723	-22.061886	0.340538
0.035300	9	-21.896619	-21.876276	0.308915
0.036000	9	-21.086141	-20.955808	0.473875
0.036700	9	-19.980204	-19.832056	0.373570
0.037400	11	-19.311614	-19.249972	0.187602
0.038100	12	-19.467991	-19.409066	0.285247
0.038800	12	-20.237888	-20.233574	0.339493
0.039500	10	-20.681940	-20.672344	0.102162
0.040200	9	-20.633133	-20.642672	0.109216
0.040900	9	-20.703700	-20.707068	0.102628
0.041600	9	-21.211704	-21.242428	0.235022
0.042300	11	-22.528147	-22.548004	0.554361
0.043000	13	-23.957700	-24.093484	0.392213
0.043700	12	-24.844335	-24.867484	0.352465
0.044400	9	-26.009898	-26.063208	0.354920
0.045100	9	-26.571073	-26.548064	0.136325
0.045800	9	-27.013140	-27.043024	0.138550
0.046500	11	-26.773735	-26.820796	0.284294
0.047200	12	-26.316897	-26.325840	0.110432
0.047900	11	-26.384151	-26.366244	0.155102
0.048600	11	-26.753073	-26.752616	0.252043
0.049300	9	-27.171812	-27.145296	0.101227
0.050000	9	-27.038814	-27.064488	0.189027
0.050700	9	-26.486476	-26.452104	0.293016
0.051400	11	-25.906871	-25.818256	0.207164
0.052100	13	-25.950252	-25.943260	0.225829
0.052800	11	-25.902624	-25.976088	0.376465
0.053500	10	-24.867485	-24.754478	0.503987
0.054200	9	-23.237268	-23.060640	0.656686
0.054900	9	-21.638198	-21.522736	0.497108
0.055600	10	-20.660349	-20.604162	0.259854
0.056300	10	-19.669298	-19.919808	0.805867
0.057000	13	-17.585031	-17.814348	1.237491
0.057700	12	-14.912050	-14.829452	1.068282
0.058400	9	-12.641287	-12.501132	0.598504
0.059100	9	-11.195698	-11.073080	0.490467
0.059800	9	-9.860241	-9.770032	0.506041
0.060500	11	-8.242345	-8.180360	0.747023
0.061200	12	-6.680547	-6.759884	0.659579
0.061900	11	-5.328159	-5.336884	0.547701
0.062600	11	-4.376353	-4.391160	0.435209
0.063300	9	-3.530177	-3.512359	0.235815
0.064000	9	-2.976156	-2.942906	0.199338
0.064700	9	-2.503225	-2.463101	0.173201
0.065400	11	-2.049298	-2.031276	0.213164
0.066100	13	-1.637428	-1.657533	0.176480
0.066800	11	-1.305829	-1.319144	0.144161
0.067500	10	-1.061059	-1.042625	0.105245
0.068200	9	-0.850702	-0.854490	0.079112
0.068900	9	-0.702692	-0.714337	0.076510
0.069600	11	-0.547668	-0.564082	0.092182
0.070300	12	-0.426980	-0.444762	0.079026
0.071000	10	-0.301957	-0.271148	0.072276
0.071700	12	-0.221168	-0.226956	0.058076
0.072400	9	-0.148110	-0.139833	0.039045
0.073100	9	-0.088204	-0.103216	0.064215
0.073800	9	-0.039802	-0.035033	0.055065
0.074500	11	0.009279	-0.016094	0.054432
0.075200	12	0.038418	0.024316	0.051007
0.075900	11	0.091134	0.105140	0.048687
0.076600	11	0.109274	0.093774	0.046623
0.077300	9	0.140922	0.139239	0.040307
0.078000	9	0.165759	0.154393	0.057572
0.078700	10	0.176241	0.166391	0.043682
0.079400	10	0.204909	0.182177	0.061177
0.080100	13	0.206560	0.197331	0.044017
0.080800	11	0.226608	0.216275	0.044756
0.081500	10	0.244690	0.232692	0.047694
0.082200	9	0.252337	0.235218	0.048847
0.082900	9	0.254161	0.252899	0.046676
0.083600	11	0.273334	0.250373	0.051437
0.084300	12	0.260371	0.254793	0.041801
0.085000	10	0.283587	0.280682	0.044165
0.085700	12	0.284471	0.267422	0.048710
0.086400	9	0.283910	0.261739	0.041991
0.087100	9	0.299205	0.302151	0.047234
0.087800	10	0.291669	0.287628	0.046481
0.088500	10	0.302783	0.274368	0.048519
0.089200	13	0.296905	0.279419	0.046725
0.089900	11	0.315584	0.298363	0.057979
0.090600	10	0.313012	0.299626	0.031780
0.091300	9	0.325304	0.310992	0.048617
0.092000	9	0.321796	0.313517	0.046903
0.092700	11	0.327983	0.318569	0.055149
0.093400	12	0.323726	0.304677	0.042974
0.094100	10	0.323494	0.307203	0.045438
0.094800	12	0.342459	0.332461	0.055119
0.095500	9	0.329935	0.316043	0.044227
0.096200	9	0.326006	0.317306	0.034639
0.096900	9	0.326988	0.317306	0.046493
0.097600	11	0.342908	0.314780	0.057733
0.098300	12	0.332461	0.316675	0.043842
0.099000	11	0.336594	0.321095	0.051962
0.099700	11	0.330739	0.319832	0.038948
0.100400	9	0.329374	0.305940	0.050509
0.101100	9	0.331899	0.327409	0.049845
0.101800	10	0.327662	0.316043	0.038879
0.102500	10	0.346479	0.336881	0.052432
0.103200	13	0.327603	0.318569	0.042749
0.103900	11	0.333724	0.307203	0.047595
0.104600	10	0.330314	0.321095	0.035528
0.105300	9	0.332180	0.304677	0.051467
0.106000	9	0.334004	0.328672	0.049737
0.106700	11	0.336135	0.319832	0.046761
0.107400	12	0.330882	0.323620	0.044120
0.108100	10	0.334860	0.332461	0.044755
0.108800	12	0.334145	0.314780	0.046782
0.109500	9	0.338494	0.343827	0.044819
0.110200	9	0.339898	0.337512	0.050496
0.110900	10	0.327157	0.322989	0.049417
0.111600	10	0.344332	0.336881	0.042816
0.112300	12	0.341301	0.326778	0.041637
0.113000	11	0.334642	0.318569	0.047440
0.113700	11	0.337283	0.338775	0.047923
0.114400	9	0.346633	0.348878	0.044426
0.115100	9	0.344949	0.345090	0.044564
0.115800	11	0.340497	0.341301	0.038597
0.116500	9	0.340599	0.351404	0.036130
0.117200	13	0.341689	0.331198	0.049834
0.117900	11	0.334757	0.314780	0.055420
0.118600	10	0.337007	0.350773	0.038584
0.119300	9	0.344107	0.340038	0.030593
0.120000	9	0.336530	0.327409	0.043479
0.120700	11	0.338201	0.327409	0.047416
0.121400	12	0.333513	0.327409	0.049661
0.122100	10	0.341932	0.338775	0.042585
0.122800	12	0.341406	0.345090	0.046708
0.123500	9	0.337512	0.324883	0.040065
0.124200	9	0.338354	0.338775	0.042264
0.124900	10	0.335113	0.340038	0.043673
0.125600	10	0.338523	0.329303	0.051543
0.126300	13	0.329741	0.356456	0.056201
0.127000	10	0.337133	0.353930	0.052379
0.127700	11	0.330624	0.338775	0.038204
0.128400	9	0.329935	0.318569	0.044966
0.129100	9	0.338214	0.356456	0.046706
0.129800	11	0.342219	0.340038	0.036052
0.130500	12	0.342143	0.341301	0.043661
0.131200	10	0.338270	0.342564	0.045891
0.131900	11	0.334412	0.321095	0.043020
0.132600	10	0.338270	0.353298	0.050749
0.133300	9	0.338214	0.348878	0.041117
0.134000	10	0.334355	0.335618	0.052928
0.134700	10	0.351025	0.364033	0.046305
0.135400	12	0.337828	0.343827	0.041682
0.136100	11	0.343023	0.340038	0.040356
0.136800	11	0.331542	0.321095	0.045474
0.137500	9	0.344669	0.341301	0.049020
0.138200	9	0.336109	0.355193	0.055152
0.138900	11	0.347730	0.355193	0.044204
0.139600	9	0.340038	0.336249	0.044729
0.140300	13	0.334889	0.336249	0.037950
0.141000	10	0.343322	0.358981	0.043767
0.141700	11	0.339234	0.341301	0.042678
0.142400	9	0.340880	0.362770	0.043058
0.143100	9	0.338915	0.341301	0.043806
0.143800	11	0.350141	0.375399	0.035987
0.144500	12	0.338459	0.333092	0.037499
0.145200	10	0.340922	0.348878	0.036493
0.145900	11	0.336938	0.353930	0.049907
0.146600	10	0.349510	0.369084	0.043584
0.147300	9	0.340319	0.358981	0.034120
0.148000	10	0.343322	0.340669	0.041106
0.148700	10	0.352035	0.361507	0.045479
0.149400	12	0.343300	0.353298	0.039858
0.150100	11	0.347615	0.364033	0.043372
0.150800	11	0.339120	0.352667	0.038862
0.151500	9	0.361788	0.367822	0.047748
0.152200	9	0.351264	0.370347	0.045780
0.152900	11	0.339464	0.348878	0.037538
0.153600	12	0.344563	0.361507	0.046452
0.154300	10	0.350141	0.364664	0.048529
0.155000	11	0.348304	0.357718	0.041062
0.155700	10	0.364412	0.383608	0.039511
0.156400	9	0.356877	0.366559	0.054709
0.157100	10	0.344079	0.359613	0.043987
0.157800	10	0.362644	0.382345	0.048968
0.158500	12	0.344774	0.345090	0.042236
0.159200	10	0.364917	0.388028	0.049614
0.159900	12	0.348773	0.366559	0.035580
0.160600	9	0.350983	0.364033	0.035997
0.161300	9	0.357999	0.367822	0.043466
0.162000	11	0.362885	0.379188	0.041633
0.162700	9	0.351404	0.367822	0.040683
0.163400	13	0.353444	0.371610	0.038920
0.164100	10	0.356961	0.369084	0.048417
0.164800	11	0.343941	0.351404	0.038193
0.165500	9	0.350562	0.365296	0.034968
0.166200	9	0.355754	0.371610	0.048001
0.166900	11	0.355422	0.362770	0.042944
0.167600	12	0.346773	0.360876	0.043205
0.168300	10	0.363907	0.367822	0.034417
0.169000	11	0.346123	0.365296	0.048569
0.169700	10	0.349004	0.349510	0.033161
0.170400	9	0.356035	0.374136	0.041864
0.171100	10	0.370726	0.391816	0.044237
0.171800	10	0.354309	0.364033	0.041380
0.172500	12	0.358981	0.360244	0.041275
0.173200	10	0.362896	0.378556	0.041478
0.173900	12	0.356350	0.366559	0.050036
0.174600	9	0.356035	0.371610	0.047009
0.175300	9	0.361086	0.374136	0.042992
0.176000	11	0.369658	0.371610	0.044968
0.176700	12	0.360244	0.355193	0.039037
0.177400	10	0.353677	0.347615	0.040999
0.178100	10	0.351404	0.373505	0.043319
0.178800	11	0.347271	0.357718	0.049636
0.179500	9	0.362489	0.377925	0.036025
0.180200	10	0.358981	0.369716	0.041035
0.180900	10	0.355066	0.364033	0.046530
0.181600	12	0.348352	0.343195	0.035759
0.182300	10	0.358981	0.369084	0.044682
0.183000	11	0.354619	0.356456	0.043283
0.183700	10	0.359992	0.362770	0.040111
0.184400	9	0.372452	0.372873	0.037694
0.185100	11	0.359211	0.367822	0.036866
0.185800	9	0.362209	0.358981	0.049424
0.186500	12	0.361612	0.368453	0.059834
0.187200	11	0.364377	0.367822	0.035987
0.187900	11	0.361622	0.358981	0.037294
0.188600	9	0.365296	0.361507	0.036452
0.189300	9	0.359823	0.374136	0.045794
0.190000	11	0.362770	0.356456	0.043295
0.190700	12	0.364243	0.371610	0.043095
0.191400	10	0.362391	0.367190	0.039860
0.192100	10	0.365169	0.360244	0.051088
0.192800	11	0.371036	0.381713	0.043293
0.193500	9	0.356736	0.343827	0.046048
0.194200	10	0.355066	0.349510	0.032798
0.194900	10	0.381713	0.391816	0.044424
0.195600	12	0.364770	0.363401	0.053183
0.196300	10	0.356203	0.346984	0.034938
0.197000	11	0.356456	0.361507	0.043231
0.197700	10	0.358729	0.358981	0.037060
0.198400	9	0.354912	0.348878	0.045654
0.199100	11	0.359441	0.352667	0.045177
0.199800	9	0.364454	0.367822	0.033677
0.200500	13	0.358301	0.361507	0.045228
0.201200	10	0.360876	0.348247	0.039142
0.201900	11	0.366444	0.384239	0.044797
0.202600	9	0.352948	0.336249	0.042100
0.203300	10	0.355445	0.359613	0.035401
0.204000	10	0.372999	0.367190	0.039537
0.204700	12	0.360981	0.348247	0.044010
0.205400	10	0.356582	0.361507	0.045864
0.206100	11	0.351060	0.336249	0.040570
0.206800	10	0.364412	0.357087	0.046067
0.207500	9	0.356315	0.364033	0.043595
0.208200	11	0.361163	0.360244	0.041170
0.208900	9	0.351825	0.343827	0.043119
0.209600	12	0.366874	0.367190	0.045251
0.210300	10	0.359108	0.362139	0.039862
0.211000	11	0.347156	0.332461	0.039962
0.211700	10	0.361507	0.369084	0.046271
0.212400	9	0.356456	0.351404	0.034550
0.213100	11	0.356685	0.350141	0.039600
0.213800	12	0.353193	0.353930	0.042964
0.214500	10	0.358602	0.353298	0.045158
0.215200	10	0.348499	0.333092	0.043890
0.215900	11	0.353700	0.360244	0.047932
0.216600	9	0.356596	0.345090	0.044624
0.217300	10	0.352035	0.346984	0.050702
0.218000	10	0.353551	0.362139	0.040342
0.218700	12	0.353298	0.352667	0.044800
0.219400	10	0.360371	0.362139	0.038090
0.220100	11	0.350026	0.348878	0.035297
0.220800	10	0.359108	0.368453	0.036708
0.221500	9	0.347335	0.353930	0.051333
0.222200	11	0.356685	0.361507	0.038505
0.222900	9	0.349720	0.347615	0.043451
0.223600	12	0.362454	0.364033	0.042895
0.224300	10	0.369968	0.379188	0.039357
0.225000	12	0.352351	0.360876	0.040063
0.225700	9	0.362209	0.361507	0.049302
0.226400	10	0.357845	0.365296	0.041239
0.227100	10	0.346984	0.362770	0.034945
0.227800	12	0.357929	0.355193	0.042574
0.228500	10	0.374262	0.376662	0.033248
0.229200	10	0.358350	0.350773	0.046168
0.229900	11	0.358292	0.352667	0.039930
0.230600	9	0.368523	0.376662	0.036120
0.231300	11	0.355767	0.356456	0.039817
0.232000	9	0.358560	0.379188	0.049955
0.232700	12	0.363507	0.373505	0.037087
0.233400	10	0.362012	0.374136	0.036503
0.234100	11	0.349223	0.358981	0.037036
0.234800	10	0.355066	0.365927	0.044354
0.235500	9	0.362489	0.366559	0.048686
0.236200	11	0.354159	0.360244	0.039269
0.236900	12	0.353825	0.370347	0.046069
0.237600	10	0.358476	0.360244	0.041110
0.238300	10	0.350646	0.365296	0.037341
0.239000	11	0.355996	0.355193	0.028643
0.239700	9	0.351544	0.372873	0.044397
0.240400	10	0.359234	0.365927	0.040883
0.241100	10	0.362896	0.359613	0.047460
0.241800	12	0.352877	0.368453	0.042953
0.242500	10	0.351909	0.365927	0.039721
0.243200	10	0.359360	0.364033	0.037519
0.243900	11	0.361966	0.351404	0.044364
0.244600	9	0.358981	0.369084	0.039431
0.245300	11	0.362540	0.372873	0.034417
0.246000	9	0.352386	0.374136	0.037514
0.246700	12	0.361402	0.358350	0.040292
0.247400	10	0.361128	0.359613	0.031573
0.248100	11	0.358752	0.364033	0.029977
0.248800	10	0.355950	0.358981	0.040531
0.249500	10	0.364664	0.374136	0.036742
0.250200	10	0.353803	0.365927	0.036249
0.250900	12	0.354772	0.370347	0.037040
0.251600	10	0.373378	0.375399	0.053222
0.252300	10	0.363023	0.359613	0.045463
0.253000	11	0.364492	0.371610	0.034419
0.253700	9	0.359122	0.372873	0.034506
0.254400	11	0.358178	0.366559	0.035464
0.255100	9	0.354210	0.348878	0.036064
0.255800	12	0.356035	0.350141	0.042010
0.256500	10	0.372368	0.386133	0.036138
0.257200	11	0.362885	0.362770	0.035730
0.257900	10	0.369968	0.381713	0.029178
0.258600	9	0.362349	0.374136	0.043066
0.259300	11	0.360703	0.364033	0.024959
0.260000	9	0.363893	0.358981	0.043579
0.260700	12	0.361297	0.378556	0.041003
0.261400	10	0.374894	0.381713	0.036954
0.262100	11	0.363000	0.366559	0.037436
0.262800	10	0.367948	0.373505	0.034978
0.263500	10	0.370347	0.374136	0.035782
0.264200	10	0.363149	0.367190	0.027127
0.264900	12	0.368769	0.381713	0.042506
0.265600	10	0.378051	0.376662	0.044630
0.266300	10	0.350899	0.342564	0.037131
0.267000	11	0.374710	0.370347	0.025766
0.267700	9	0.363051	0.367822	0.035400
0.268400	11	0.365066	0.362770	0.036383
0.269100	9	0.367541	0.372873	0.043646
0.269800	12	0.359192	0.364033	0.036185
0.270500	10	0.367948	0.369716	0.036977
0.271200	11	0.358407	0.348878	0.035628
0.271900	10	0.368453	0.372242	0.026540
0.272600	10	0.369842	0.369716	0.037984
0.273300	10	0.359486	0.359613	0.034999
0.274000	12	0.362349	0.369716	0.033880
0.274700	10	0.371863	0.379819	0.037180
0.275400	9	0.350281	0.348878	0.035081
0.276100	11	0.371610	0.379188	0.036392
0.276800	10	0.363275	0.360876	0.032690
0.277500	11	0.364377	0.346352	0.034882
0.278200	9	0.360665	0.372873	0.047734
0.278900	12	0.365296	0.352667	0.037353
0.279600	10	0.363275	0.353298	0.036098
0.280300	10	0.352541	0.342564	0.039894
0.281000	11	0.375055	0.370347	0.039900
0.281700	10	0.369842	0.376662	0.038026
0.282400	10	0.360497	0.350141	0.039299
0.283100	9	0.366699	0.366559	0.035628
0.283800	12	0.373926	0.360244	0.052802
0.284500	10	0.373883	0.377925	0.042373
0.285200	11	0.363803	0.348878	0.043604
0.285900	10	0.370221	0.379188	0.049795
0.286600	10	0.368832	0.364664	0.041498
0.287300	10	0.359613	0.349510	0.037858
0.288000	12	0.366348	0.357718	0.039345
0.288700	10	0.373631	0.367822	0.047105
0.289400	10	0.371863	0.353930	0.042463
0.290100	10	0.366306	0.372873	0.035468
0.290800	10	0.363401	0.354561	0.029726
0.291500	11	0.365296	0.369084	0.039922
0.292200	9	0.372873	0.371610	0.040935
0.292900	12	0.363086	0.365927	0.039877
0.293600	10	0.376662	0.357718	0.046391
0.294300	10	0.368200	0.346984	0.047290
0.295000	11	0.366214	0.362770	0.037622
0.295700	10	0.375020	0.368453	0.037731
0.296400	10	0.364033	0.370347	0.042606
0.297100	12	0.370453	0.366559	0.039851
0.297800	9	0.365436	0.355193	0.042279
0.298500	10	0.373252	0.364033	0.044782
0.299200	11	0.365181	0.367822	0.039105
0.299900	10	0.365043	0.346984	0.042602
